LabVIEW Measurement	
Writer_Version	2
Reader_Version	2
Separator	Tab
Decimal_Separator	,
Multi_Headings	No
X_Columns	Multi
Time_Pref	Relative
Operator	eduardo.wisbecki
Date	2025/07/01
Time	10:30:35,3636372687496218707
***End_of_Header***	
	
Channels	2			
Samples	2000		2000	
Date	2025/07/01		2025/07/01	
Time	10:30:36,5738925933837890625		10:30:35,3636372687496218707	
Y_Unit_Label			m/s^2	
X_Dimension	Time		Time	
X0	0,0000000000000000E+0		0,0000000000000000E+0	
Delta_X	1,000000		0,000605	
***End_of_Header***				
X_Value	Untitled	X_Value	Acceleration	Comment
0,000000	9,707999E-6	0,000000	-0,038234
1,000000	6,775682E-7	0,000605	-0,035644
2,000000	6,659970E-7	0,001211	-0,032882
3,000000	7,524385E-7	0,001816	-0,031214
4,000000	9,226272E-7	0,002422	-0,027148
5,000000	9,320290E-7	0,003027	-0,024391
6,000000	1,262590E-6	0,003633	-0,020749
7,000000	1,598501E-6	0,004238	-0,018471
8,000000	2,074035E-6	0,004844	-0,015912
9,000000	3,018734E-6	0,005449	-0,013341
10,000000	5,040206E-6	0,006055	-0,011003
11,000000	9,935132E-6	0,006660	-0,006961
12,000000	2,723804E-5	0,007266	-0,005550
13,000000	0,000214	0,007871	-0,001747
14,000000	0,000143	0,008477	0,000789
15,000000	1,846530E-5	0,009082	0,003749
16,000000	7,227635E-6	0,009687	0,006649
17,000000	3,985624E-6	0,010293	0,009250
18,000000	2,391920E-6	0,010898	0,012616
19,000000	1,550976E-6	0,011504	0,014751
20,000000	1,172024E-6	0,012109	0,017681
21,000000	8,226886E-7	0,012715	0,019857
22,000000	6,748809E-7	0,013320	0,022937
23,000000	5,806109E-7	0,013926	0,026297
24,000000	4,745227E-7	0,014531	0,028563
25,000000	3,887831E-7	0,015137	0,031541
26,000000	3,366038E-7	0,015742	0,033000
27,000000	2,806151E-7	0,016348	0,036522
28,000000	2,393732E-7	0,016953	0,037880
29,000000	2,166952E-7	0,017559	0,040343
30,000000	2,009676E-7	0,018164	0,042053
31,000000	1,706280E-7	0,018770	0,044917
32,000000	1,589990E-7	0,019375	0,046616
33,000000	1,381689E-7	0,019980	0,048906
34,000000	1,112791E-7	0,020586	0,051453
35,000000	1,574388E-7	0,021191	0,052410
36,000000	6,394038E-8	0,021797	0,054652
37,000000	5,463123E-8	0,022402	0,057122
38,000000	7,514582E-8	0,023008	0,057749
39,000000	7,167218E-8	0,023613	0,058724
40,000000	1,191210E-8	0,024219	0,060667
41,000000	9,667407E-8	0,024824	0,062264
42,000000	6,845346E-8	0,025430	0,063974
43,000000	6,930825E-8	0,026035	0,065935
44,000000	5,598298E-8	0,026641	0,065995
45,000000	6,786686E-8	0,027246	0,067777
46,000000	5,147212E-8	0,027852	0,068381
47,000000	5,352742E-8	0,028457	0,068680
48,000000	4,539693E-8	0,029062	0,070306
49,000000	5,169707E-8	0,029668	0,069948
50,000000	4,477473E-8	0,030273	0,071060
51,000000	3,849231E-8	0,030879	0,070055
52,000000	3,645545E-8	0,031484	0,071413
53,000000	4,462535E-8	0,032090	0,072088
54,000000	4,202208E-8	0,032695	0,071616
55,000000	3,962334E-8	0,033301	0,071299
56,000000	4,725316E-8	0,033906	0,071096
57,000000	3,614220E-8	0,034512	0,071084
58,000000	4,206365E-8	0,035117	0,069936
59,000000	3,089071E-8	0,035723	0,069714
60,000000	3,482554E-8	0,036328	0,069469
61,000000	2,791304E-8	0,036934	0,067897
62,000000	2,369095E-8	0,037539	0,066264
63,000000	3,444374E-8	0,038145	0,065296
64,000000	2,029839E-8	0,038750	0,063478
65,000000	3,614179E-8	0,039355	0,062276
66,000000	2,668337E-8	0,039961	0,060805
67,000000	1,407923E-8	0,040566	0,058862
68,000000	1,747921E-8	0,041172	0,056015
69,000000	2,790288E-8	0,041777	0,054993
70,000000	2,220861E-8	0,042383	0,052571
71,000000	1,771220E-8	0,042988	0,050126
72,000000	1,905003E-8	0,043594	0,047823
73,000000	1,223198E-8	0,044199	0,046042
74,000000	1,854468E-8	0,044805	0,044313
75,000000	1,404046E-8	0,045410	0,041425
76,000000	1,838421E-8	0,046016	0,039040
77,000000	1,354736E-8	0,046621	0,035673
78,000000	1,711109E-8	0,047227	0,033604
79,000000	1,268909E-8	0,047832	0,030830
80,000000	2,056445E-8	0,048438	0,027888
81,000000	1,074135E-8	0,049043	0,025604
82,000000	1,651242E-8	0,049648	0,023457
83,000000	1,336741E-8	0,050254	0,020019
84,000000	1,618114E-8	0,050859	0,017759
85,000000	1,426384E-8	0,051465	0,014787
86,000000	1,689322E-8	0,052070	0,012443
87,000000	1,390106E-8	0,052676	0,010428
88,000000	9,446898E-9	0,053281	0,007928
89,000000	1,098897E-8	0,053887	0,004137
90,000000	1,263708E-8	0,054492	0,001339
91,000000	9,772631E-9	0,055098	-0,000246
92,000000	1,070929E-8	0,055703	-0,003911
93,000000	9,091094E-9	0,056309	-0,006177
94,000000	7,847296E-9	0,056914	-0,009687
95,000000	1,163128E-8	0,057520	-0,012288
96,000000	9,919203E-9	0,058125	-0,014507
97,000000	9,598248E-9	0,058730	-0,017485
98,000000	9,539019E-9	0,059336	-0,019434
99,000000	8,921472E-9	0,059941	-0,022741
100,000000	7,301223E-9	0,060547	-0,025354
101,000000	9,379033E-9	0,061152	-0,026526
102,000000	9,346414E-9	0,061758	-0,030149
103,000000	9,769821E-9	0,062363	-0,031829
104,000000	9,160336E-9	0,062969	-0,034359
105,000000	8,383639E-9	0,063574	-0,036009
106,000000	8,053538E-9	0,064180	-0,038473
107,000000	9,399315E-9	0,064785	-0,040422
108,000000	9,630729E-9	0,065391	-0,042114
109,000000	6,797611E-9	0,065996	-0,045038
110,000000	6,027071E-9	0,066602	-0,046144
111,000000	6,195633E-9	0,067207	-0,048405
112,000000	7,221571E-9	0,067812	-0,049624
113,000000	5,666775E-9	0,068418	-0,051000
114,000000	7,159149E-9	0,069023	-0,053128
115,000000	7,233648E-9	0,069629	-0,054348
116,000000	7,997943E-9	0,070234	-0,054575
117,000000	6,203825E-9	0,070840	-0,056979
118,000000	7,663462E-9	0,071445	-0,057356
119,000000	5,901623E-9	0,072051	-0,058355
120,000000	6,850534E-9	0,072656	-0,059592
121,000000	7,245058E-9	0,073262	-0,060095
122,000000	7,262413E-9	0,073867	-0,060633
123,000000	6,757128E-9	0,074473	-0,061512
124,000000	7,393017E-9	0,075078	-0,062492
125,000000	6,219200E-9	0,075684	-0,062427
126,000000	5,860536E-9	0,076289	-0,062450
127,000000	6,099040E-9	0,076895	-0,062636
128,000000	6,013886E-9	0,077500	-0,062444
129,000000	5,830645E-9	0,078105	-0,062827
130,000000	3,756103E-9	0,078711	-0,062851
131,000000	5,956453E-9	0,079316	-0,062151
132,000000	7,887381E-9	0,079922	-0,061745
133,000000	4,405004E-9	0,080527	-0,061231
134,000000	4,805118E-9	0,081133	-0,061560
135,000000	3,456245E-9	0,081738	-0,059945
136,000000	4,963016E-9	0,082344	-0,059365
137,000000	4,521112E-9	0,082949	-0,058079
138,000000	4,012165E-9	0,083555	-0,057009
139,000000	4,560761E-9	0,084160	-0,055909
140,000000	5,434190E-9	0,084766	-0,053876
141,000000	5,100935E-9	0,085371	-0,053625
142,000000	4,686301E-9	0,085977	-0,051233
143,000000	4,059350E-9	0,086582	-0,050294
144,000000	2,742423E-9	0,087188	-0,048094
145,000000	5,170169E-9	0,087793	-0,046515
146,000000	4,687216E-9	0,088398	-0,044578
147,000000	5,108482E-9	0,089004	-0,042048
148,000000	5,091459E-9	0,089609	-0,040625
149,000000	5,170103E-9	0,090215	-0,038335
150,000000	4,279439E-9	0,090820	-0,035746
151,000000	4,094556E-9	0,091426	-0,033247
152,000000	6,330630E-9	0,092031	-0,030753
153,000000	6,785648E-9	0,092637	-0,028463
154,000000	3,972000E-9	0,093242	-0,025922
155,000000	4,037919E-9	0,093848	-0,023297
156,000000	2,906983E-9	0,094453	-0,021204
157,000000	4,600462E-9	0,095059	-0,018543
158,000000	4,052328E-9	0,095664	-0,015511
159,000000	4,151207E-9	0,096270	-0,012874
160,000000	4,085992E-9	0,096875	-0,011063
161,000000	3,089011E-9	0,097480	-0,007427
162,000000	4,216549E-9	0,098086	-0,005418
163,000000	3,883176E-9	0,098691	-0,002626
164,000000	5,165134E-9	0,099297	-0,000491
165,000000	3,175183E-9	0,099902	0,002427
166,000000	3,289728E-9	0,100508	0,005638
167,000000	4,415248E-9	0,101113	0,008120
168,000000	2,850399E-9	0,101719	0,010523
169,000000	2,951483E-9	0,102324	0,013244
170,000000	1,701753E-9	0,102930	0,015480
171,000000	3,532461E-9	0,103535	0,017597
172,000000	2,819746E-9	0,104141	0,020862
173,000000	2,585952E-9	0,104746	0,022721
174,000000	2,814598E-9	0,105352	0,024671
175,000000	3,189219E-9	0,105957	0,027457
176,000000	3,072528E-9	0,106563	0,029436
177,000000	3,633687E-9	0,107168	0,031984
178,000000	3,398493E-9	0,107773	0,034465
179,000000	4,670599E-9	0,108379	0,036181
180,000000	4,054001E-9	0,108984	0,038741
181,000000	2,718634E-9	0,109590	0,039303
182,000000	2,289783E-9	0,110195	0,042083
183,000000	2,806788E-9	0,110801	0,044080
184,000000	2,371463E-9	0,111406	0,046825
185,000000	3,147725E-9	0,112012	0,047255
186,000000	3,110844E-9	0,112617	0,049569
187,000000	3,261953E-9	0,113223	0,050783
188,000000	2,195013E-9	0,113828	0,052529
189,000000	3,053922E-9	0,114434	0,054108
190,000000	2,389334E-9	0,115039	0,054981
191,000000	2,032177E-9	0,115645	0,057235
192,000000	2,220395E-9	0,116250	0,057606
193,000000	2,840271E-9	0,116855	0,059244
194,000000	2,044893E-9	0,117461	0,060153
195,000000	3,271468E-9	0,118066	0,061032
196,000000	2,841160E-9	0,118672	0,061301
197,000000	2,411696E-9	0,119277	0,062910
198,000000	3,782516E-9	0,119883	0,063729
199,000000	2,732082E-9	0,120488	0,063358
200,000000	2,720782E-9	0,121094	0,064488
201,000000	2,136174E-9	0,121699	0,063544
202,000000	3,186292E-9	0,122305	0,065116
203,000000	3,384019E-9	0,122910	0,064967
204,000000	3,401507E-9	0,123516	0,065672
205,000000	2,329116E-9	0,124121	0,064141
206,000000	2,812251E-9	0,124727	0,064177
207,000000	4,070673E-9	0,125332	0,063837
208,000000	2,099355E-9	0,125938	0,062778
209,000000	2,838133E-9	0,126543	0,062539
210,000000	3,174464E-9	0,127148	0,061576
211,000000	2,428496E-9	0,127754	0,060930
212,000000	2,349901E-9	0,128359	0,060171
213,000000	2,906604E-9	0,128965	0,058748
214,000000	3,216181E-9	0,129570	0,057403
215,000000	1,848915E-9	0,130176	0,055908
216,000000	2,010380E-9	0,130781	0,054706
217,000000	1,342110E-9	0,131387	0,053229
218,000000	2,025362E-9	0,131992	0,052290
219,000000	2,156648E-9	0,132598	0,050993
220,000000	1,318760E-9	0,133203	0,048535
221,000000	1,600992E-9	0,133809	0,046819
222,000000	3,214816E-9	0,134414	0,045473
223,000000	2,858446E-9	0,135020	0,042753
224,000000	2,678869E-9	0,135625	0,040510
225,000000	1,329862E-9	0,136230	0,037933
226,000000	1,912495E-9	0,136836	0,035721
227,000000	1,694823E-9	0,137441	0,034788
228,000000	2,103139E-9	0,138047	0,031499
229,000000	2,604184E-9	0,138652	0,028982
230,000000	1,591923E-9	0,139258	0,027810
231,000000	3,205460E-9	0,139863	0,025083
232,000000	2,368857E-9	0,140469	0,022189
233,000000	2,043548E-9	0,141074	0,019594
234,000000	8,110228E-10	0,141680	0,017513
235,000000	2,333505E-9	0,142285	0,015349
236,000000	1,700667E-9	0,142891	0,012807
237,000000	1,809967E-9	0,143496	0,010362
238,000000	1,352208E-9	0,144102	0,007151
239,000000	1,969613E-9	0,144707	0,004687
240,000000	2,481490E-9	0,145313	0,002481
241,000000	3,000535E-9	0,145918	0,000257
242,000000	7,419137E-10	0,146523	-0,002363
243,000000	2,733509E-9	0,147129	-0,005041
244,000000	1,899041E-9	0,147734	-0,007810
245,000000	1,672021E-9	0,148340	-0,010638
246,000000	6,919301E-10	0,148945	-0,012402
247,000000	1,324073E-9	0,149551	-0,014788
248,000000	1,222705E-9	0,150156	-0,017180
249,000000	1,807666E-9	0,150762	-0,019912
250,000000	6,979246E-10	0,151367	-0,021694
251,000000	1,197605E-9	0,151973	-0,024020
252,000000	1,704917E-9	0,152578	-0,026179
253,000000	1,134341E-9	0,153184	-0,028511
254,000000	2,844921E-9	0,153789	-0,030406
255,000000	1,738160E-9	0,154395	-0,032643
256,000000	1,923909E-9	0,155000	-0,034150
257,000000	1,416723E-9	0,155605	-0,036266
258,000000	1,347168E-9	0,156211	-0,038939
259,000000	1,862949E-9	0,156816	-0,039513
260,000000	8,090623E-10	0,157422	-0,041564
261,000000	1,832567E-9	0,158027	-0,043519
262,000000	1,659303E-9	0,158633	-0,044913
263,000000	1,679028E-9	0,159238	-0,047089
264,000000	1,012871E-9	0,159844	-0,047424
265,000000	1,201842E-9	0,160449	-0,048710
266,000000	9,519845E-10	0,161055	-0,049852
267,000000	1,705110E-9	0,161660	-0,051699
268,000000	1,271593E-9	0,162266	-0,051735
269,000000	1,932229E-9	0,162871	-0,052321
270,000000	1,166873E-9	0,163477	-0,053631
271,000000	3,217039E-9	0,164082	-0,054013
272,000000	1,986461E-9	0,164687	-0,054934
273,000000	1,070227E-9	0,165293	-0,054809
274,000000	1,116378E-9	0,165898	-0,056106
275,000000	1,196337E-9	0,166504	-0,055783
276,000000	6,673031E-10	0,167109	-0,056112
277,000000	7,781760E-10	0,167715	-0,056369
278,000000	1,709977E-9	0,168320	-0,056130
279,000000	1,267631E-9	0,168926	-0,056686
280,000000	9,081096E-10	0,169531	-0,056459
281,000000	9,928846E-10	0,170137	-0,056142
282,000000	8,273529E-10	0,170742	-0,055018
283,000000	1,685243E-9	0,171348	-0,055108
284,000000	1,068551E-9	0,171953	-0,054169
285,000000	9,619387E-10	0,172559	-0,053595
286,000000	1,206344E-9	0,173164	-0,052961
287,000000	1,861279E-9	0,173770	-0,051353
288,000000	1,299088E-9	0,174375	-0,050462
289,000000	7,281858E-10	0,174980	-0,050318
290,000000	1,068080E-9	0,175586	-0,049009
291,000000	1,547453E-9	0,176191	-0,047251
292,000000	7,672449E-10	0,176797	-0,045618
293,000000	1,397581E-9	0,177402	-0,044201
294,000000	1,110942E-9	0,178008	-0,042144
295,000000	9,078937E-10	0,178613	-0,040243
296,000000	1,298674E-9	0,179219	-0,038742
297,000000	1,261949E-9	0,179824	-0,036332
298,000000	1,558396E-9	0,180430	-0,034586
299,000000	7,545944E-10	0,181035	-0,033199
300,000000	9,516475E-10	0,181641	-0,030723
301,000000	1,118372E-9	0,182246	-0,028553
302,000000	9,347915E-10	0,182852	-0,026717
303,000000	1,005349E-9	0,183457	-0,024259
304,000000	9,067300E-10	0,184062	-0,022292
305,000000	7,606485E-10	0,184668	-0,019811
306,000000	6,877135E-10	0,185273	-0,017550
307,000000	8,126319E-10	0,185879	-0,016468
308,000000	1,187695E-9	0,186484	-0,012868
309,000000	1,047122E-9	0,187090	-0,010309
310,000000	1,554174E-9	0,187695	-0,008988
311,000000	7,271647E-10	0,188301	-0,006201
312,000000	1,506922E-9	0,188906	-0,004348
313,000000	1,234635E-9	0,189512	-0,001537
314,000000	7,759139E-10	0,190117	0,001118
315,000000	5,762239E-10	0,190723	0,002104
316,000000	8,422804E-10	0,191328	0,004699
317,000000	1,322130E-9	0,191934	0,006858
318,000000	1,169404E-9	0,192539	0,010697
319,000000	1,104549E-9	0,193145	0,012287
320,000000	1,276087E-9	0,193750	0,014613
321,000000	7,942603E-10	0,194355	0,017137
322,000000	1,283666E-9	0,194961	0,019845
323,000000	1,603403E-9	0,195566	0,021669
324,000000	1,795629E-9	0,196172	0,023152
325,000000	6,104996E-10	0,196777	0,026853
326,000000	7,242181E-10	0,197383	0,027744
327,000000	1,002029E-9	0,197988	0,030094
328,000000	7,622748E-10	0,198594	0,032899
329,000000	5,773300E-10	0,199199	0,033580
330,000000	8,567239E-10	0,199805	0,036026
331,000000	1,464827E-9	0,200410	0,038274
332,000000	9,625339E-10	0,201016	0,039829
333,000000	7,714624E-10	0,201621	0,040768
334,000000	6,471226E-10	0,202227	0,042825
335,000000	6,132476E-10	0,202832	0,044589
336,000000	6,340054E-10	0,203437	0,045814
337,000000	7,903129E-10	0,204043	0,047937
338,000000	8,284087E-10	0,204648	0,048421
339,000000	3,933404E-10	0,205254	0,050126
340,000000	3,059724E-10	0,205859	0,050939
341,000000	9,870588E-10	0,206465	0,051878
342,000000	9,559914E-10	0,207070	0,053079
343,000000	3,758969E-10	0,207676	0,054299
344,000000	1,193695E-9	0,208281	0,054933
345,000000	8,187851E-10	0,208887	0,055704
346,000000	8,401377E-10	0,209492	0,056894
347,000000	8,958115E-10	0,210098	0,056278
348,000000	5,639951E-10	0,210703	0,058305
349,000000	1,068247E-9	0,211309	0,057343
350,000000	3,913503E-10	0,211914	0,058909
351,000000	6,283749E-10	0,212520	0,058347
352,000000	1,914782E-9	0,213125	0,057899
353,000000	7,291333E-10	0,213730	0,058927
354,000000	1,158960E-9	0,214336	0,058216
355,000000	9,245114E-10	0,214941	0,058258
356,000000	6,369912E-10	0,215547	0,057438
357,000000	6,389073E-10	0,216152	0,057791
358,000000	9,819025E-10	0,216758	0,057128
359,000000	7,495755E-10	0,217363	0,057026
360,000000	9,089672E-10	0,217969	0,056446
361,000000	3,739172E-10	0,218574	0,055573
362,000000	1,051800E-9	0,219180	0,054879
363,000000	1,132043E-9	0,219785	0,054132
364,000000	9,989359E-10	0,220391	0,052703
365,000000	4,577085E-10	0,220996	0,051668
366,000000	1,269777E-9	0,221602	0,049288
367,000000	1,495808E-9	0,222207	0,048834
368,000000	1,023990E-9	0,222812	0,047208
369,000000	3,584456E-10	0,223418	0,044696
370,000000	5,960399E-10	0,224023	0,042848
371,000000	1,826420E-10	0,224629	0,041964
372,000000	9,258953E-10	0,225234	0,040403
373,000000	6,190487E-10	0,225840	0,037449
374,000000	1,570411E-10	0,226445	0,036899
375,000000	4,057803E-10	0,227051	0,034387
376,000000	6,465695E-10	0,227656	0,031601
377,000000	7,249122E-10	0,228262	0,030417
378,000000	5,639174E-10	0,228867	0,027673
379,000000	2,123860E-10	0,229473	0,025962
380,000000	1,425298E-9	0,230078	0,024133
381,000000	7,311190E-10	0,230684	0,021466
382,000000	6,594006E-10	0,231289	0,019457
383,000000	5,578984E-10	0,231895	0,017764
384,000000	6,626803E-10	0,232500	0,014571
385,000000	5,759571E-10	0,233105	0,013806
386,000000	7,027823E-10	0,233711	0,011020
387,000000	1,190932E-9	0,234316	0,008472
388,000000	7,833460E-10	0,234922	0,007157
389,000000	1,528209E-9	0,235527	0,004179
390,000000	3,895716E-10	0,236133	0,002983
391,000000	6,833735E-10	0,236738	8,908832E-5
392,000000	7,489093E-10	0,237344	-0,001788
393,000000	4,460347E-10	0,237949	-0,004330
394,000000	1,160646E-9	0,238555	-0,006787
395,000000	4,157449E-10	0,239160	-0,008557
396,000000	3,321877E-10	0,239766	-0,011081
397,000000	4,926219E-10	0,240371	-0,013712
398,000000	7,697107E-10	0,240977	-0,015954
399,000000	5,469339E-10	0,241582	-0,017951
400,000000	4,872970E-10	0,242187	-0,019171
401,000000	1,354138E-9	0,242793	-0,021485
402,000000	1,249634E-9	0,243398	-0,023518
403,000000	8,472371E-10	0,244004	-0,026227
404,000000	6,302446E-10	0,244609	-0,027716
405,000000	5,805397E-10	0,245215	-0,029970
406,000000	9,419735E-10	0,245820	-0,031339
407,000000	3,589774E-10	0,246426	-0,032451
408,000000	9,574666E-10	0,247031	-0,035172
409,000000	3,068932E-10	0,247637	-0,035603
410,000000	6,198841E-10	0,248242	-0,038180
411,000000	1,048430E-9	0,248848	-0,039166
412,000000	1,175860E-9	0,249453	-0,040314
413,000000	3,151981E-10	0,250059	-0,042019
414,000000	5,738342E-10	0,250664	-0,043017
415,000000	7,237675E-10	0,251270	-0,043896
416,000000	3,217922E-10	0,251875	-0,044650
417,000000	9,148259E-10	0,252480	-0,046641
418,000000	1,403551E-9	0,253086	-0,046659
419,000000	3,554587E-10	0,253691	-0,047562
420,000000	5,455551E-10	0,254297	-0,048201
421,000000	7,461679E-10	0,254902	-0,048542
422,000000	9,493233E-10	0,255508	-0,049038
423,000000	6,378968E-10	0,256113	-0,050432
424,000000	4,944664E-10	0,256719	-0,049858
425,000000	6,991612E-10	0,257324	-0,050222
426,000000	6,148556E-10	0,257930	-0,050587
427,000000	1,351010E-9	0,258535	-0,050187
428,000000	5,699993E-10	0,259141	-0,050372
429,000000	6,013789E-10	0,259746	-0,050432
430,000000	1,409702E-9	0,260352	-0,049923
431,000000	3,097040E-10	0,260957	-0,050617
432,000000	6,729623E-10	0,261562	-0,050079
433,000000	3,549672E-10	0,262168	-0,049260
434,000000	2,620775E-10	0,262773	-0,049427
435,000000	1,623064E-10	0,263379	-0,048823
436,000000	2,101053E-10	0,263984	-0,047819
437,000000	1,105662E-9	0,264590	-0,046527
438,000000	6,781414E-10	0,265195	-0,044823
439,000000	6,228055E-10	0,265801	-0,043663
440,000000	1,108976E-10	0,266406	-0,042808
441,000000	2,997943E-10	0,267012	-0,042329
442,000000	3,838281E-10	0,267617	-0,041379
443,000000	6,627851E-10	0,268223	-0,039328
444,000000	8,594351E-10	0,268828	-0,037869
445,000000	4,183297E-10	0,269434	-0,036404
446,000000	7,648394E-10	0,270039	-0,034562
447,000000	5,693733E-10	0,270645	-0,032158
448,000000	3,259385E-10	0,271250	-0,031530
449,000000	4,582417E-10	0,271855	-0,028612
450,000000	1,047000E-9	0,272461	-0,027112
451,000000	6,446152E-10	0,273066	-0,024905
452,000000	6,018117E-10	0,273672	-0,023566
453,000000	6,150262E-10	0,274277	-0,021658
454,000000	8,399569E-10	0,274883	-0,019015
455,000000	5,494951E-10	0,275488	-0,016546
456,000000	1,029708E-9	0,276094	-0,015105
457,000000	5,269820E-10	0,276699	-0,012976
458,000000	2,104573E-10	0,277305	-0,011332
459,000000	2,779305E-10	0,277910	-0,010160
460,000000	3,318689E-10	0,278516	-0,006769
461,000000	1,842752E-10	0,279121	-0,004443
462,000000	6,704573E-10	0,279727	-0,002446
463,000000	6,954041E-10	0,280332	-0,000365
464,000000	7,860868E-10	0,280938	0,001554
465,000000	4,058414E-10	0,281543	0,003557
466,000000	6,212099E-10	0,282148	0,005459
467,000000	8,523597E-10	0,282754	0,007874
468,000000	6,664284E-10	0,283359	0,009238
469,000000	4,858866E-10	0,283965	0,012473
470,000000	6,105999E-10	0,284570	0,013710
471,000000	4,990301E-10	0,285176	0,015654
472,000000	9,433627E-10	0,285781	0,019385
473,000000	9,702995E-10	0,286387	0,020443
474,000000	4,806773E-10	0,286992	0,022100
475,000000	7,800636E-10	0,287598	0,023714
476,000000	8,602134E-10	0,288203	0,026196
477,000000	4,071694E-10	0,288809	0,027667
478,000000	4,123539E-10	0,289414	0,030949
479,000000	6,021874E-10	0,290020	0,031613
480,000000	3,435917E-10	0,290625	0,033855
481,000000	7,956009E-10	0,291230	0,035225
482,000000	8,108755E-10	0,291836	0,036869
483,000000	2,106165E-10	0,292441	0,038788
484,000000	2,908709E-10	0,293047	0,039141
485,000000	8,164230E-10	0,293652	0,040463
486,000000	1,816403E-10	0,294258	0,042729
487,000000	1,723690E-10	0,294863	0,043040
488,000000	1,162766E-9	0,295469	0,044284
489,000000	7,455262E-10	0,296074	0,046574
490,000000	4,950602E-10	0,296680	0,046915
491,000000	5,837054E-10	0,297285	0,048122
492,000000	4,299142E-10	0,297891	0,049061
493,000000	5,493870E-10	0,298496	0,050466
494,000000	3,053270E-10	0,299102	0,050747
495,000000	1,917006E-10	0,299707	0,050873
496,000000	6,962491E-10	0,300312	0,052260
497,000000	5,110713E-10	0,300918	0,052954
498,000000	3,715859E-10	0,301523	0,053671
499,000000	4,117060E-10	0,302129	0,053151
500,000000	8,452984E-10	0,302734	0,053976
501,000000	5,875846E-10	0,303340	0,053731
502,000000	2,855833E-10	0,303945	0,053253
503,000000	6,353380E-10	0,304551	0,053773
504,000000	4,069534E-10	0,305156	0,053474
505,000000	1,370983E-10	0,305762	0,053067
506,000000	7,799873E-10	0,306367	0,053600
507,000000	3,984920E-10	0,306973	0,052924
508,000000	8,371753E-10	0,307578	0,053301
509,000000	7,101926E-10	0,308184	0,051190
510,000000	7,214210E-10	0,308789	0,051872
511,000000	6,380216E-10	0,309395	0,050102
512,000000	4,251039E-10	0,310000	0,049115
513,000000	2,915763E-10	0,310605	0,048380
514,000000	7,009868E-10	0,311211	0,047453
515,000000	8,978420E-10	0,311816	0,046125
516,000000	5,766680E-11	0,312422	0,044780
517,000000	3,410539E-10	0,313027	0,042956
518,000000	1,090246E-9	0,313633	0,042137
519,000000	6,663880E-10	0,314238	0,040756
520,000000	1,367029E-10	0,314844	0,039285
521,000000	5,167211E-10	0,315449	0,037742
522,000000	3,909890E-10	0,316055	0,036791
523,000000	2,810195E-10	0,316660	0,033879
524,000000	1,689799E-10	0,317266	0,032366
525,000000	3,846809E-10	0,317871	0,030136
526,000000	2,390833E-10	0,318477	0,028043
527,000000	6,923190E-10	0,319082	0,026231
528,000000	1,013965E-9	0,319688	0,024778
529,000000	3,183222E-10	0,320293	0,022076
530,000000	7,270095E-10	0,320898	0,020766
531,000000	1,949564E-10	0,321504	0,019648
532,000000	3,958764E-10	0,322109	0,016754
533,000000	3,369476E-10	0,322715	0,014099
534,000000	1,821254E-10	0,323320	0,012712
535,000000	6,537835E-11	0,323926	0,010739
536,000000	4,035770E-10	0,324531	0,007880
537,000000	2,573659E-10	0,325137	0,006320
538,000000	2,169849E-10	0,325742	0,004065
539,000000	1,988314E-10	0,326348	0,003073
540,000000	3,591328E-10	0,326953	0,000538
541,000000	4,798008E-10	0,327559	-0,002165
542,000000	2,395826E-10	0,328164	-0,003648
543,000000	2,899349E-10	0,328770	-0,005137
544,000000	3,622992E-10	0,329375	-0,007738
545,000000	2,258331E-10	0,329980	-0,009227
546,000000	4,162517E-10	0,330586	-0,012037
547,000000	3,182992E-10	0,331191	-0,012175
548,000000	8,618761E-10	0,331797	-0,015697
549,000000	2,080196E-10	0,332402	-0,017162
550,000000	2,129966E-10	0,333008	-0,018794
551,000000	9,543834E-10	0,333613	-0,021114
552,000000	3,814184E-10	0,334219	-0,022687
553,000000	9,815073E-10	0,334824	-0,025168
554,000000	8,906545E-10	0,335430	-0,025342
555,000000	7,958583E-11	0,336035	-0,027441
556,000000	2,992716E-10	0,336641	-0,029432
557,000000	1,000742E-10	0,337246	-0,030173
558,000000	2,680198E-10	0,337852	-0,032571
559,000000	4,702539E-10	0,338457	-0,033653
560,000000	2,309460E-10	0,339062	-0,035280
561,000000	2,750202E-10	0,339668	-0,036063
562,000000	1,019648E-9	0,340273	-0,037612
563,000000	9,261594E-10	0,340879	-0,038616
564,000000	6,232395E-10	0,341484	-0,039728
565,000000	6,687535E-10	0,342090	-0,041026
566,000000	1,142429E-9	0,342695	-0,040930
567,000000	6,984894E-10	0,343301	-0,042563
568,000000	3,898597E-10	0,343906	-0,042820
569,000000	9,758324E-10	0,344512	-0,044225
570,000000	5,055570E-10	0,345117	-0,045200
571,000000	4,564718E-10	0,345723	-0,044046
572,000000	4,256540E-11	0,346328	-0,045666
573,000000	2,224405E-10	0,346934	-0,045839
574,000000	3,022028E-10	0,347539	-0,045929
575,000000	4,990325E-10	0,348145	-0,046928
576,000000	5,259519E-10	0,348750	-0,046587
577,000000	7,951806E-11	0,349355	-0,046987
578,000000	5,602222E-10	0,349961	-0,046473
579,000000	2,413284E-10	0,350566	-0,047394
580,000000	1,180913E-10	0,351172	-0,046700
581,000000	9,018736E-10	0,351777	-0,046354
582,000000	3,469905E-10	0,352383	-0,046120
583,000000	4,139395E-10	0,352988	-0,046551
584,000000	6,245405E-10	0,353594	-0,045074
585,000000	4,178704E-10	0,354199	-0,043836
586,000000	5,142655E-10	0,354805	-0,043394
587,000000	4,719987E-10	0,355410	-0,041486
588,000000	4,787930E-10	0,356016	-0,041169
589,000000	5,406083E-10	0,356621	-0,040542
590,000000	3,795276E-10	0,357227	-0,039639
591,000000	1,909999E-10	0,357832	-0,038275
592,000000	3,811304E-10	0,358438	-0,036511
593,000000	9,401120E-11	0,359043	-0,036236
594,000000	7,303003E-10	0,359648	-0,033288
595,000000	5,452376E-10	0,360254	-0,032595
596,000000	3,165240E-10	0,360859	-0,030364
597,000000	1,994656E-10	0,361465	-0,028642
598,000000	6,091317E-10	0,362070	-0,027040
599,000000	2,408476E-10	0,362676	-0,025300
600,000000	4,042155E-10	0,363281	-0,024050
601,000000	8,941476E-10	0,363887	-0,021616
602,000000	4,676107E-10	0,364492	-0,019290
603,000000	3,905740E-10	0,365098	-0,018005
604,000000	7,564714E-10	0,365703	-0,016307
605,000000	2,407712E-10	0,366309	-0,014776
606,000000	5,113530E-10	0,366914	-0,013108
607,000000	6,474993E-10	0,367520	-0,011368
608,000000	3,732253E-10	0,368125	-0,008264
609,000000	1,882769E-10	0,368730	-0,007660
610,000000	2,379123E-10	0,369336	-0,004503
611,000000	3,854483E-10	0,369941	-0,003176
612,000000	9,176851E-10	0,370547	-0,000909
613,000000	1,393803E-10	0,371152	0,000753
614,000000	4,689310E-10	0,371758	0,003019
615,000000	3,567530E-10	0,372363	0,004143
616,000000	3,809737E-10	0,372969	0,007127
617,000000	1,405359E-10	0,373574	0,009303
618,000000	2,058768E-10	0,374180	0,010894
619,000000	2,426832E-10	0,374785	0,012796
620,000000	9,146333E-10	0,375391	0,014870
621,000000	2,577165E-10	0,375996	0,017513
622,000000	3,687861E-10	0,376602	0,018596
623,000000	8,338762E-10	0,377207	0,020336
624,000000	2,689943E-10	0,377812	0,022865
625,000000	2,877103E-10	0,378418	0,024725
626,000000	6,757571E-10	0,379023	0,026196
627,000000	1,509606E-10	0,379629	0,027613
628,000000	1,529366E-9	0,380234	0,029257
629,000000	3,548616E-10	0,380840	0,030746
630,000000	4,400574E-10	0,381445	0,032354
631,000000	7,895970E-10	0,382051	0,034274
632,000000	1,517636E-10	0,382656	0,034824
633,000000	1,810263E-10	0,383262	0,035781
634,000000	3,211334E-10	0,383867	0,038220
635,000000	1,496921E-10	0,384473	0,038460
636,000000	1,211181E-10	0,385078	0,039560
637,000000	4,410911E-10	0,385684	0,041067
638,000000	5,628648E-10	0,386289	0,042771
639,000000	4,662299E-10	0,386895	0,043739
640,000000	2,950075E-10	0,387500	0,044684
641,000000	4,455348E-11	0,388105	0,044618
642,000000	4,224226E-10	0,388711	0,046795
643,000000	3,579661E-10	0,389316	0,047040
644,000000	3,591950E-10	0,389922	0,047829
645,000000	8,306863E-10	0,390527	0,047901
646,000000	7,155220E-10	0,391133	0,048667
647,000000	2,027227E-10	0,391738	0,049205
648,000000	3,099903E-10	0,392344	0,048176
649,000000	3,919352E-10	0,392949	0,049534
650,000000	4,209681E-10	0,393555	0,049480
651,000000	4,353824E-10	0,394160	0,050036
652,000000	2,462295E-10	0,394766	0,050353
653,000000	5,791114E-10	0,395371	0,049282
654,000000	1,842835E-12	0,395977	0,050323
655,000000	3,105761E-10	0,396582	0,049821
656,000000	1,613829E-10	0,397187	0,049336
657,000000	1,144044E-10	0,397793	0,047351
658,000000	6,534674E-10	0,398398	0,048152
659,000000	2,923782E-10	0,399004	0,048116
660,000000	1,702850E-10	0,399609	0,046406
661,000000	6,163578E-10	0,400215	0,046299
662,000000	6,553772E-10	0,400820	0,045760
663,000000	2,598167E-10	0,401426	0,044780
664,000000	2,080429E-10	0,402031	0,043925
665,000000	5,715980E-10	0,402637	0,042567
666,000000	7,150613E-10	0,403242	0,040965
667,000000	4,875128E-10	0,403848	0,040301
668,000000	4,075112E-10	0,404453	0,038364
669,000000	8,723368E-11	0,405059	0,036241
670,000000	1,757444E-10	0,405664	0,036438
671,000000	3,844723E-10	0,406270	0,033299
672,000000	5,299809E-10	0,406875	0,031852
673,000000	1,135654E-9	0,407480	0,031135
674,000000	2,328842E-10	0,408086	0,029239
675,000000	2,747333E-10	0,408691	0,026381
676,000000	6,846369E-10	0,409297	0,025155
677,000000	7,213687E-10	0,409902	0,022692
678,000000	6,211397E-11	0,410508	0,021699
679,000000	1,926682E-10	0,411113	0,019427
680,000000	5,586433E-10	0,411719	0,017442
681,000000	3,347805E-10	0,412324	0,015929
682,000000	1,027465E-9	0,412930	0,013968
683,000000	8,223558E-10	0,413535	0,012257
684,000000	2,547476E-10	0,414141	0,010912
685,000000	5,447905E-10	0,414746	0,007791
686,000000	4,224699E-10	0,415352	0,005817
687,000000	1,937329E-10	0,415957	0,004532
688,000000	7,145176E-10	0,416563	0,002887
689,000000	3,403386E-11	0,417168	0,000711
690,000000	2,022896E-11	0,417773	-0,001185
691,000000	4,511512E-10	0,418379	-0,003140
692,000000	5,474161E-10	0,418984	-0,005071
693,000000	8,811538E-10	0,419590	-0,007254
694,000000	1,346165E-10	0,420195	-0,008737
695,000000	3,191153E-10	0,420801	-0,011254
696,000000	1,058131E-10	0,421406	-0,012898
697,000000	7,152390E-10	0,422012	-0,014100
698,000000	2,396903E-10	0,422617	-0,016205
699,000000	6,974940E-10	0,423223	-0,018190
700,000000	1,765947E-10	0,423828	-0,020187
701,000000	1,426705E-10	0,424434	-0,020911
702,000000	3,114736E-10	0,425039	-0,023064
703,000000	3,376026E-10	0,425645	-0,024457
704,000000	4,907478E-10	0,426250	-0,026502
705,000000	1,961010E-10	0,426855	-0,027895
706,000000	6,571173E-10	0,427461	-0,029121
707,000000	7,395989E-10	0,428066	-0,030388
708,000000	1,278910E-10	0,428672	-0,031130
709,000000	1,906866E-10	0,429277	-0,033803
710,000000	6,757087E-10	0,429883	-0,034730
711,000000	2,552244E-10	0,430488	-0,034580
712,000000	1,105580E-10	0,431094	-0,036577
713,000000	5,076706E-11	0,431699	-0,036775
714,000000	3,414457E-10	0,432305	-0,038084
715,000000	1,110764E-9	0,432910	-0,038760
716,000000	1,662365E-10	0,433516	-0,040739
717,000000	4,181119E-10	0,434121	-0,040524
718,000000	2,015907E-10	0,434727	-0,040081
719,000000	3,821615E-10	0,435332	-0,042353
720,000000	3,426923E-10	0,435937	-0,041935
721,000000	9,358210E-11	0,436543	-0,041546
722,000000	3,232166E-10	0,437148	-0,042981
723,000000	5,706533E-10	0,437754	-0,043023
724,000000	5,470555E-10	0,438359	-0,043161
725,000000	6,216060E-11	0,438965	-0,042903
726,000000	3,178604E-10	0,439570	-0,043794
727,000000	2,997476E-10	0,440176	-0,043358
728,000000	8,023596E-11	0,440781	-0,042365
729,000000	6,635303E-10	0,441387	-0,043167
730,000000	3,501580E-10	0,441992	-0,042700
731,000000	7,363119E-10	0,442598	-0,041791
732,000000	7,555659E-11	0,443203	-0,041385
733,000000	2,125624E-10	0,443809	-0,041612
734,000000	2,006380E-10	0,444414	-0,039687
735,000000	6,316525E-10	0,445020	-0,039394
736,000000	3,391571E-10	0,445625	-0,039220
737,000000	3,994047E-10	0,446230	-0,038299
738,000000	6,549567E-10	0,446836	-0,037223
739,000000	1,931745E-10	0,447441	-0,036236
740,000000	8,087302E-10	0,448047	-0,034658
741,000000	2,359809E-10	0,448652	-0,033821
742,000000	7,655402E-10	0,449258	-0,031889
743,000000	2,815793E-10	0,449863	-0,030544
744,000000	5,362646E-10	0,450469	-0,029426
745,000000	2,364574E-10	0,451074	-0,028905
746,000000	8,852208E-11	0,451680	-0,026406
747,000000	2,386139E-10	0,452285	-0,025366
748,000000	5,112681E-10	0,452891	-0,024194
749,000000	6,751732E-11	0,453496	-0,021383
750,000000	6,551054E-10	0,454102	-0,020032
751,000000	5,578740E-10	0,454707	-0,019673
752,000000	2,303137E-10	0,455313	-0,016869
753,000000	6,792660E-11	0,455918	-0,014794
754,000000	7,731281E-11	0,456523	-0,013532
755,000000	3,067977E-10	0,457129	-0,010985
756,000000	2,598674E-10	0,457734	-0,009741
757,000000	3,386339E-10	0,458340	-0,008061
758,000000	7,865966E-11	0,458945	-0,006207
759,000000	9,253588E-11	0,459551	-0,004246
760,000000	7,738216E-11	0,460156	-0,002261
761,000000	3,798713E-11	0,460762	-0,000670
762,000000	1,010432E-9	0,461367	0,001291
763,000000	5,480025E-10	0,461973	0,002481
764,000000	1,168384E-12	0,462578	0,005070
765,000000	9,353149E-10	0,463184	0,006906
766,000000	2,463010E-10	0,463789	0,008951
767,000000	2,360885E-10	0,464395	0,010906
768,000000	3,064328E-10	0,465000	0,011791
769,000000	7,326881E-10	0,465605	0,014434
770,000000	1,806568E-10	0,466211	0,015002
771,000000	3,050107E-10	0,466816	0,017723
772,000000	5,873944E-11	0,467422	0,019092
773,000000	3,266109E-10	0,468027	0,020814
774,000000	1,865583E-10	0,468633	0,021771
775,000000	1,770899E-10	0,469238	0,024228
776,000000	6,627418E-10	0,469844	0,025448
777,000000	2,364175E-10	0,470449	0,026889
778,000000	3,770191E-10	0,471055	0,028713
779,000000	3,341324E-11	0,471660	0,029975
780,000000	3,979104E-10	0,472266	0,031422
781,000000	3,619967E-10	0,472871	0,032576
782,000000	3,797670E-10	0,473477	0,034100
783,000000	3,025274E-10	0,474082	0,035434
784,000000	2,004984E-10	0,474687	0,036331
785,000000	3,840552E-10	0,475293	0,038041
786,000000	6,171677E-10	0,475898	0,039446
787,000000	1,301081E-10	0,476504	0,039339
788,000000	2,580772E-10	0,477109	0,040732
789,000000	3,269020E-10	0,477715	0,041162
790,000000	4,792676E-10	0,478320	0,042490
791,000000	4,843242E-10	0,478926	0,042227
792,000000	1,599624E-10	0,479531	0,042878
793,000000	3,487641E-10	0,480137	0,044349
794,000000	9,538038E-11	0,480742	0,044618
795,000000	2,757876E-12	0,481348	0,044654
796,000000	1,796142E-10	0,481953	0,045007
797,000000	5,061941E-10	0,482559	0,045294
798,000000	2,808624E-10	0,483164	0,045737
799,000000	2,686498E-11	0,483770	0,045713
800,000000	4,861896E-10	0,484375	0,045778
801,000000	2,232189E-10	0,484980	0,045886
802,000000	5,317183E-10	0,485586	0,045139
803,000000	1,234770E-10	0,486191	0,044307
804,000000	5,144122E-10	0,486797	0,045796
805,000000	1,360958E-10	0,487402	0,044834
806,000000	6,470397E-10	0,488008	0,043668
807,000000	1,835125E-10	0,488613	0,043458
808,000000	5,237419E-10	0,489219	0,043010
809,000000	2,524113E-10	0,489824	0,043189
810,000000	3,465727E-10	0,490430	0,042107
811,000000	2,504124E-10	0,491035	0,040959
812,000000	2,327190E-10	0,491641	0,039488
813,000000	4,173509E-10	0,492246	0,038950
814,000000	2,498528E-10	0,492852	0,037419
815,000000	1,187195E-10	0,493457	0,036821
816,000000	5,535270E-11	0,494063	0,035727
817,000000	9,960619E-11	0,494668	0,034621
818,000000	4,177462E-10	0,495273	0,033293
819,000000	3,549539E-10	0,495879	0,031553
820,000000	6,145821E-10	0,496484	0,030094
821,000000	8,745071E-10	0,497090	0,028695
822,000000	2,784364E-10	0,497695	0,027302
823,000000	6,855962E-10	0,498301	0,025789
824,000000	4,166656E-10	0,498906	0,023941
825,000000	1,255272E-9	0,499512	0,022321
826,000000	7,341425E-10	0,500117	0,020832
827,000000	4,946838E-10	0,500723	0,019098
828,000000	5,712306E-10	0,501328	0,017370
829,000000	6,518885E-10	0,501934	0,016007
830,000000	3,947268E-10	0,502539	0,014428
831,000000	3,547603E-10	0,503145	0,012718
832,000000	1,940556E-10	0,503750	0,010601
833,000000	2,401798E-10	0,504355	0,008903
834,000000	3,981514E-10	0,504961	0,007175
835,000000	5,476550E-11	0,505566	0,005255
836,000000	1,888267E-10	0,506172	0,004568
837,000000	7,594581E-11	0,506777	0,001883
838,000000	4,789619E-11	0,507383	0,000131
839,000000	5,225505E-10	0,507988	-0,000987
840,000000	1,035823E-9	0,508594	-0,002889
841,000000	1,106981E-10	0,509199	-0,004629
842,000000	2,215119E-10	0,509805	-0,006387
843,000000	3,906504E-10	0,510410	-0,008444
844,000000	2,054447E-10	0,511016	-0,010124
845,000000	4,538051E-10	0,511621	-0,010973
846,000000	3,880561E-10	0,512227	-0,012785
847,000000	4,125480E-10	0,512832	-0,014316
848,000000	5,868232E-10	0,513437	-0,016115
849,000000	6,182339E-10	0,514043	-0,018184
850,000000	2,000590E-11	0,514648	-0,018441
851,000000	3,318830E-11	0,515254	-0,020576
852,000000	4,966797E-10	0,515859	-0,022507
853,000000	1,366252E-9	0,516465	-0,024738
854,000000	6,128510E-10	0,517070	-0,025306
855,000000	9,356414E-10	0,517676	-0,026753
856,000000	1,652712E-10	0,518281	-0,027309
857,000000	1,751576E-10	0,518887	-0,028589
858,000000	3,393528E-10	0,519492	-0,030329
859,000000	2,903729E-10	0,520098	-0,031871
860,000000	6,616297E-10	0,520703	-0,031937
861,000000	2,962344E-10	0,521309	-0,033444
862,000000	3,979437E-10	0,521914	-0,033540
863,000000	3,616422E-10	0,522520	-0,034161
864,000000	9,003080E-10	0,523125	-0,035447
865,000000	1,390032E-9	0,523730	-0,036314
866,000000	4,410446E-11	0,524336	-0,036613
867,000000	1,288857E-9	0,524941	-0,037414
868,000000	5,728019E-10	0,525547	-0,038778
869,000000	3,383681E-10	0,526152	-0,037941
870,000000	3,795653E-11	0,526758	-0,039997
871,000000	4,694984E-10	0,527363	-0,039136
872,000000	8,552359E-11	0,527969	-0,039997
873,000000	2,562434E-10	0,528574	-0,040027
874,000000	2,173279E-10	0,529180	-0,038664
875,000000	2,832216E-10	0,529785	-0,039124
876,000000	3,153228E-10	0,530391	-0,039872
877,000000	7,444894E-10	0,530996	-0,038730
878,000000	2,359502E-10	0,531602	-0,038975
879,000000	4,689304E-11	0,532207	-0,039698
880,000000	2,121946E-11	0,532813	-0,037917
881,000000	9,268924E-11	0,533418	-0,037809
882,000000	1,304605E-10	0,534023	-0,037038
883,000000	5,943170E-10	0,534629	-0,036308
884,000000	1,550688E-10	0,535234	-0,036882
885,000000	3,395657E-10	0,535840	-0,035178
886,000000	8,360352E-11	0,536445	-0,034897
887,000000	3,514489E-11	0,537051	-0,033641
888,000000	4,426977E-10	0,537656	-0,032517
889,000000	6,504952E-10	0,538262	-0,031190
890,000000	2,532602E-10	0,538867	-0,030867
891,000000	2,030509E-11	0,539473	-0,028618
892,000000	4,793617E-10	0,540078	-0,028828
893,000000	3,854137E-10	0,540684	-0,026460
894,000000	1,758874E-10	0,541289	-0,024875
895,000000	7,963168E-11	0,541895	-0,024331
896,000000	8,679301E-11	0,542500	-0,021987
897,000000	3,417777E-10	0,543105	-0,020283
898,000000	3,692742E-10	0,543711	-0,019763
899,000000	1,175236E-10	0,544316	-0,017503
900,000000	1,607424E-10	0,544922	-0,016097
901,000000	3,502017E-10	0,545527	-0,014495
902,000000	1,268284E-10	0,546133	-0,012277
903,000000	1,295881E-10	0,546738	-0,011218
904,000000	2,277495E-10	0,547344	-0,009293
905,000000	7,123486E-10	0,547949	-0,007325
906,000000	4,812353E-10	0,548555	-0,006243
907,000000	6,516974E-10	0,549160	-0,004659
908,000000	3,919879E-10	0,549766	-0,002667
909,000000	8,111284E-11	0,550371	-0,001866
910,000000	4,277013E-10	0,550977	-0,000204
911,000000	5,964922E-11	0,551582	0,002343
912,000000	1,727746E-10	0,552187	0,003180
913,000000	1,893650E-10	0,552793	0,005064
914,000000	6,845494E-11	0,553398	0,006565
915,000000	5,052517E-10	0,554004	0,008604
916,000000	1,210198E-10	0,554609	0,009632
917,000000	3,298761E-10	0,555215	0,012126
918,000000	4,623975E-10	0,555820	0,013148
919,000000	3,893678E-10	0,556426	0,015128
920,000000	1,751599E-10	0,557031	0,016431
921,000000	1,608683E-10	0,557637	0,017017
922,000000	4,901169E-10	0,558242	0,019116
923,000000	2,763442E-10	0,558848	0,020838
924,000000	2,549895E-10	0,559453	0,022524
925,000000	1,517603E-10	0,560059	0,024061
926,000000	4,795046E-10	0,560664	0,024982
927,000000	3,014151E-10	0,561270	0,026536
928,000000	3,060999E-10	0,561875	0,026859
929,000000	1,010907E-10	0,562480	0,028528
930,000000	2,306405E-10	0,563086	0,029664
931,000000	3,125421E-10	0,563691	0,030883
932,000000	5,131744E-10	0,564297	0,032199
933,000000	3,780321E-10	0,564902	0,033090
934,000000	5,244680E-11	0,565508	0,034489
935,000000	2,654750E-10	0,566113	0,035464
936,000000	4,793029E-10	0,566719	0,036092
937,000000	1,301992E-10	0,567324	0,037270
938,000000	7,391734E-10	0,567930	0,037150
939,000000	4,033114E-10	0,568535	0,038519
940,000000	7,174564E-10	0,569141	0,039368
941,000000	3,058161E-10	0,569746	0,039661
942,000000	4,214179E-10	0,570352	0,041025
943,000000	3,975258E-10	0,570957	0,041264
944,000000	7,746315E-11	0,571562	0,041162
945,000000	1,658310E-10	0,572168	0,042711
946,000000	3,635482E-10	0,572773	0,041479
947,000000	2,836535E-10	0,573379	0,042119
948,000000	4,432363E-10	0,573984	0,042382
949,000000	7,237366E-10	0,574590	0,041940
950,000000	1,747711E-10	0,575195	0,042370
951,000000	6,794360E-10	0,575801	0,041928
952,000000	2,468854E-10	0,576406	0,041688
953,000000	1,846079E-10	0,577012	0,041491
954,000000	2,477515E-11	0,577617	0,041366
955,000000	5,420591E-10	0,578223	0,040247
956,000000	8,365921E-10	0,578828	0,040068
957,000000	7,322683E-11	0,579434	0,039285
958,000000	3,164440E-11	0,580039	0,038735
959,000000	5,238396E-10	0,580645	0,039386
960,000000	4,059721E-10	0,581250	0,037850
961,000000	2,035972E-10	0,581855	0,037545
962,000000	3,702671E-11	0,582461	0,035751
963,000000	3,862539E-10	0,583066	0,035440
964,000000	1,903667E-10	0,583672	0,034214
965,000000	2,909224E-11	0,584277	0,032737
966,000000	3,591031E-10	0,584883	0,032683
967,000000	8,416465E-11	0,585488	0,030405
968,000000	4,653384E-10	0,586094	0,029448
969,000000	3,018814E-10	0,586699	0,028109
970,000000	2,124205E-10	0,587305	0,026178
971,000000	1,200641E-10	0,587910	0,024838
972,000000	2,045137E-10	0,588516	0,023427
973,000000	2,669927E-10	0,589121	0,021986
974,000000	2,535672E-10	0,589727	0,020324
975,000000	3,320964E-10	0,590332	0,019337
976,000000	1,235897E-11	0,590938	0,018327
977,000000	2,261731E-10	0,591543	0,016377
978,000000	3,989089E-10	0,592148	0,014284
979,000000	2,894509E-10	0,592754	0,013370
980,000000	9,892579E-11	0,593359	0,011169
981,000000	8,645451E-11	0,593965	0,009860
982,000000	5,349540E-10	0,594570	0,008682
983,000000	2,205949E-10	0,595176	0,005889
984,000000	1,601009E-10	0,595781	0,004454
985,000000	1,647771E-10	0,596387	0,003450
986,000000	3,478032E-10	0,596992	0,001925
987,000000	4,773639E-10	0,597598	-0,000120
988,000000	2,201598E-10	0,598203	-0,001507
989,000000	3,627692E-10	0,598809	-0,003110
990,000000	1,521527E-10	0,599414	-0,005203
991,000000	1,659662E-10	0,600020	-0,005837
992,000000	3,054933E-10	0,600625	-0,007834
993,000000	1,673816E-10	0,601230	-0,008097
994,000000	2,348146E-10	0,601836	-0,010285
995,000000	5,393694E-10	0,602441	-0,012282
996,000000	3,238904E-10	0,603047	-0,013520
997,000000	2,562005E-10	0,603652	-0,014931
998,000000	9,689700E-10	0,604258	-0,015846
999,000000	1,833338E-10	0,604863	-0,016863
1000,000000	1,425888E-10	0,605469	-0,018603
1001,000000	1,833338E-10	0,606074	-0,020140
1002,000000	9,689700E-10	0,606680	-0,020737
1003,000000	2,562005E-10	0,607285	-0,022226
1004,000000	3,238904E-10	0,607891	-0,023919
1005,000000	5,393694E-10	0,608496	-0,025204
1006,000000	2,348146E-10	0,609102	-0,025659
1007,000000	1,673816E-10	0,609707	-0,027429
1008,000000	3,054933E-10	0,610313	-0,027656
1009,000000	1,659662E-10	0,610918	-0,028116
1010,000000	1,521527E-10	0,611523	-0,029438
1011,000000	3,627692E-10	0,612129	-0,029904
1012,000000	2,201598E-10	0,612734	-0,030867
1013,000000	4,773639E-10	0,613340	-0,031662
1014,000000	3,478032E-10	0,613945	-0,031548
1015,000000	1,647771E-10	0,614551	-0,032714
1016,000000	1,601009E-10	0,615156	-0,033259
1017,000000	2,205949E-10	0,615762	-0,032888
1018,000000	5,349540E-10	0,616367	-0,033570
1019,000000	8,645451E-11	0,616973	-0,034670
1020,000000	9,892579E-11	0,617578	-0,035609
1021,000000	2,894509E-10	0,618184	-0,034945
1022,000000	3,989089E-10	0,618789	-0,035806
1023,000000	2,261731E-10	0,619395	-0,035214
1024,000000	1,235897E-11	0,620000	-0,035321
1025,000000	3,320964E-10	0,620605	-0,035459
1026,000000	2,535672E-10	0,621211	-0,035854
1027,000000	2,669927E-10	0,621816	-0,035662
1028,000000	2,045137E-10	0,622422	-0,035429
1029,000000	1,200641E-10	0,623027	-0,035339
1030,000000	2,124205E-10	0,623633	-0,034676
1031,000000	3,018814E-10	0,624238	-0,033534
1032,000000	4,653384E-10	0,624844	-0,033408
1033,000000	8,416465E-11	0,625449	-0,032415
1034,000000	3,591031E-10	0,626055	-0,031937
1035,000000	2,909224E-11	0,626660	-0,030962
1036,000000	1,903667E-10	0,627266	-0,029480
1037,000000	3,862539E-10	0,627871	-0,029025
1038,000000	3,702671E-11	0,628477	-0,027823
1039,000000	2,035972E-10	0,629082	-0,026884
1040,000000	4,059721E-10	0,629687	-0,026059
1041,000000	5,238396E-10	0,630293	-0,025138
1042,000000	3,164440E-11	0,630898	-0,022974
1043,000000	7,322683E-11	0,631504	-0,022143
1044,000000	8,365921E-10	0,632109	-0,020223
1045,000000	5,420591E-10	0,632715	-0,020199
1046,000000	2,477515E-11	0,633320	-0,017234
1047,000000	1,846079E-10	0,633926	-0,016749
1048,000000	2,468854E-10	0,634531	-0,015942
1049,000000	6,794360E-10	0,635137	-0,014357
1050,000000	1,747711E-10	0,635742	-0,012880
1051,000000	7,237366E-10	0,636348	-0,011111
1052,000000	4,432363E-10	0,636953	-0,009795
1053,000000	2,836535E-10	0,637559	-0,007977
1054,000000	3,635482E-10	0,638164	-0,007068
1055,000000	1,658310E-10	0,638770	-0,004689
1056,000000	7,746315E-11	0,639375	-0,004198
1057,000000	3,975258E-10	0,639980	-0,002093
1058,000000	4,214179E-10	0,640586	-0,000646
1059,000000	3,058161E-10	0,641191	0,001225
1060,000000	7,174564E-10	0,641797	0,002373
1061,000000	4,033114E-10	0,642402	0,004400
1062,000000	7,391734E-10	0,643008	0,005560
1063,000000	1,301992E-10	0,643613	0,008036
1064,000000	4,793029E-10	0,644219	0,008723
1065,000000	2,654750E-10	0,644824	0,009931
1066,000000	5,244680E-11	0,645430	0,012365
1067,000000	3,780321E-10	0,646035	0,013698
1068,000000	5,131744E-10	0,646641	0,015026
1069,000000	3,125421E-10	0,647246	0,016808
1070,000000	2,306405E-10	0,647852	0,017424
1071,000000	1,010907E-10	0,648457	0,018440
1072,000000	3,060999E-10	0,649062	0,019385
1073,000000	3,014151E-10	0,649668	0,021257
1074,000000	4,795046E-10	0,650273	0,022243
1075,000000	1,517603E-10	0,650879	0,023062
1076,000000	2,549895E-10	0,651484	0,024527
1077,000000	2,763442E-10	0,652090	0,024892
1078,000000	4,901169E-10	0,652695	0,026423
1079,000000	1,608683E-10	0,653301	0,026381
1080,000000	1,751599E-10	0,653906	0,028282
1081,000000	3,893678E-10	0,654512	0,029209
1082,000000	4,623975E-10	0,655117	0,030483
1083,000000	3,298761E-10	0,655723	0,031105
1084,000000	1,210198E-10	0,656328	0,032372
1085,000000	5,052517E-10	0,656934	0,032791
1086,000000	6,845494E-11	0,657539	0,034094
1087,000000	1,893650E-10	0,658145	0,033957
1088,000000	1,727746E-10	0,658750	0,035278
1089,000000	5,964922E-11	0,659355	0,035745
1090,000000	4,277013E-10	0,659961	0,035793
1091,000000	8,111284E-11	0,660566	0,036869
1092,000000	3,919879E-10	0,661172	0,038304
1093,000000	6,516974E-10	0,661777	0,038155
1094,000000	4,812353E-10	0,662383	0,038495
1095,000000	7,123486E-10	0,662988	0,039129
1096,000000	2,277495E-10	0,663594	0,039010
1097,000000	1,295881E-10	0,664199	0,039398
1098,000000	1,268284E-10	0,664805	0,039147
1099,000000	3,502017E-10	0,665410	0,038753
1100,000000	1,607424E-10	0,666016	0,038190
1101,000000	1,175236E-10	0,666621	0,038184
1102,000000	3,692742E-10	0,667227	0,036833
1103,000000	3,417777E-10	0,667832	0,036450
1104,000000	8,679301E-11	0,668438	0,036438
1105,000000	7,963168E-11	0,669043	0,035571
1106,000000	1,758874E-10	0,669648	0,035302
1107,000000	3,854137E-10	0,670254	0,034298
1108,000000	4,793617E-10	0,670859	0,033401
1109,000000	2,030509E-11	0,671465	0,033311
1110,000000	2,532602E-10	0,672070	0,032313
1111,000000	6,504952E-10	0,672676	0,030351
1112,000000	4,426977E-10	0,673281	0,029807
1113,000000	3,514489E-11	0,673887	0,029419
1114,000000	8,360352E-11	0,674492	0,028486
1115,000000	3,395657E-10	0,675098	0,027840
1116,000000	1,550688E-10	0,675703	0,026967
1117,000000	5,943170E-10	0,676309	0,026058
1118,000000	1,304605E-10	0,676914	0,024755
1119,000000	9,268924E-11	0,677520	0,023469
1120,000000	2,121946E-11	0,678125	0,022309
1121,000000	4,689304E-11	0,678730	0,020629
1122,000000	2,359502E-10	0,679336	0,019887
1123,000000	7,444894E-10	0,679941	0,018584
1124,000000	3,153228E-10	0,680547	0,017687
1125,000000	2,832216E-10	0,681152	0,016276
1126,000000	2,173279E-10	0,681758	0,013842
1127,000000	2,562434E-10	0,682363	0,013047
1128,000000	8,552359E-11	0,682969	0,011008
1129,000000	4,694984E-10	0,683574	0,010727
1130,000000	3,795653E-11	0,684180	0,008861
1131,000000	3,383681E-10	0,684785	0,007552
1132,000000	5,728019E-10	0,685391	0,005985
1133,000000	1,288857E-9	0,685996	0,005118
1134,000000	4,410446E-11	0,686602	0,002828
1135,000000	1,390032E-9	0,687207	0,001141
1136,000000	9,003080E-10	0,687813	-0,000168
1137,000000	3,616422E-10	0,688418	-0,001735
1138,000000	3,979437E-10	0,689023	-0,003403
1139,000000	2,962344E-10	0,689629	-0,004892
1140,000000	6,616297E-10	0,690234	-0,006417
1141,000000	2,903729E-10	0,690840	-0,007397
1142,000000	3,393528E-10	0,691445	-0,008952
1143,000000	1,751576E-10	0,692051	-0,010040
1144,000000	1,652712E-10	0,692656	-0,012271
1145,000000	9,356414E-10	0,693262	-0,012713
1146,000000	6,128510E-10	0,693867	-0,013909
1147,000000	1,366252E-9	0,694473	-0,015667
1148,000000	4,966797E-10	0,695078	-0,016151
1149,000000	3,318830E-11	0,695684	-0,017634
1150,000000	2,000590E-11	0,696289	-0,019249
1151,000000	6,182339E-10	0,696895	-0,019715
1152,000000	5,868232E-10	0,697500	-0,020965
1153,000000	4,125480E-10	0,698105	-0,022687
1154,000000	3,880561E-10	0,698711	-0,022346
1155,000000	4,538051E-10	0,699316	-0,023661
1156,000000	2,054447E-10	0,699922	-0,023877
1157,000000	3,906504E-10	0,700527	-0,024827
1158,000000	2,215119E-10	0,701133	-0,026352
1159,000000	1,106981E-10	0,701738	-0,026747
1160,000000	1,035823E-9	0,702344	-0,027345
1161,000000	5,225505E-10	0,702949	-0,028439
1162,000000	4,789619E-11	0,703555	-0,029557
1163,000000	7,594581E-11	0,704160	-0,030048
1164,000000	1,888267E-10	0,704766	-0,029623
1165,000000	5,476550E-11	0,705371	-0,030077
1166,000000	3,981514E-10	0,705977	-0,030323
1167,000000	2,401798E-10	0,706582	-0,031309
1168,000000	1,940556E-10	0,707187	-0,031202
1169,000000	3,547603E-10	0,707793	-0,031913
1170,000000	3,947268E-10	0,708398	-0,031668
1171,000000	6,518885E-10	0,709004	-0,031620
1172,000000	5,712306E-10	0,709609	-0,032015
1173,000000	4,946838E-10	0,710215	-0,032577
1174,000000	7,341425E-10	0,710820	-0,032368
1175,000000	1,255272E-9	0,711426	-0,031662
1176,000000	4,166656E-10	0,712031	-0,031877
1177,000000	6,855962E-10	0,712637	-0,031261
1178,000000	2,784364E-10	0,713242	-0,030843
1179,000000	8,745071E-10	0,713848	-0,030024
1180,000000	6,145821E-10	0,714453	-0,029587
1181,000000	3,549539E-10	0,715059	-0,029091
1182,000000	4,177462E-10	0,715664	-0,028900
1183,000000	9,960619E-11	0,716270	-0,027482
1184,000000	5,535270E-11	0,716875	-0,026448
1185,000000	1,187195E-10	0,717480	-0,026137
1186,000000	2,498528E-10	0,718086	-0,025461
1187,000000	4,173509E-10	0,718691	-0,024200
1188,000000	2,327190E-10	0,719297	-0,023709
1189,000000	2,504124E-10	0,719902	-0,021927
1190,000000	3,465727E-10	0,720508	-0,020588
1191,000000	2,524113E-10	0,721113	-0,020373
1192,000000	5,237419E-10	0,721719	-0,018842
1193,000000	1,835125E-10	0,722324	-0,017479
1194,000000	6,470397E-10	0,722930	-0,016372
1195,000000	1,360958E-10	0,723535	-0,015643
1196,000000	5,144122E-10	0,724141	-0,014854
1197,000000	1,234770E-10	0,724746	-0,013060
1198,000000	5,317183E-10	0,725352	-0,013108
1199,000000	2,232189E-10	0,725957	-0,010124
1200,000000	4,861896E-10	0,726562	-0,009777
1201,000000	2,686498E-11	0,727168	-0,008091
1202,000000	2,808624E-10	0,727773	-0,006608
1203,000000	5,061941E-10	0,728379	-0,005394
1204,000000	1,796142E-10	0,728984	-0,004162
1205,000000	2,757876E-12	0,729590	-0,003540
1206,000000	9,538038E-11	0,730195	-0,001119
1207,000000	3,487641E-10	0,730801	5,375358E-6
1208,000000	1,599624E-10	0,731406	0,001482
1209,000000	4,843242E-10	0,732012	0,002469
1210,000000	4,792676E-10	0,732617	0,004006
1211,000000	3,269020E-10	0,733223	0,005225
1212,000000	2,580772E-10	0,733828	0,006589
1213,000000	1,301081E-10	0,734434	0,008078
1214,000000	6,171677E-10	0,735039	0,009943
1215,000000	3,840552E-10	0,735645	0,010846
1216,000000	2,004984E-10	0,736250	0,011020
1217,000000	3,025274E-10	0,736855	0,013722
1218,000000	3,797670E-10	0,737461	0,014500
1219,000000	3,619967E-10	0,738066	0,015953
1220,000000	3,979104E-10	0,738672	0,016987
1221,000000	3,341324E-11	0,739277	0,018309
1222,000000	3,770191E-10	0,739883	0,018554
1223,000000	2,364175E-10	0,740488	0,020180
1224,000000	6,627418E-10	0,741094	0,021185
1225,000000	1,770899E-10	0,741699	0,023367
1226,000000	1,865583E-10	0,742305	0,023606
1227,000000	3,266109E-10	0,742910	0,024593
1228,000000	5,873944E-11	0,743516	0,026046
1229,000000	3,050107E-10	0,744121	0,026225
1230,000000	1,806568E-10	0,744727	0,027673
1231,000000	7,326881E-10	0,745332	0,029413
1232,000000	3,064328E-10	0,745938	0,030005
1233,000000	2,360885E-10	0,746543	0,030704
1234,000000	2,463010E-10	0,747148	0,031099
1235,000000	9,353149E-10	0,747754	0,031876
1236,000000	1,168384E-12	0,748359	0,032594
1237,000000	5,480025E-10	0,748965	0,032923
1238,000000	1,010432E-9	0,749570	0,033054
1239,000000	3,798713E-11	0,750176	0,033718
1240,000000	7,738216E-11	0,750781	0,034352
1241,000000	9,253588E-11	0,751387	0,035063
1242,000000	7,865966E-11	0,751992	0,033957
1243,000000	3,386339E-10	0,752598	0,034669
1244,000000	2,598674E-10	0,753203	0,034489
1245,000000	3,067977E-10	0,753809	0,034178
1246,000000	7,731281E-11	0,754414	0,034411
1247,000000	6,792660E-11	0,755020	0,034519
1248,000000	2,303137E-10	0,755625	0,034746
1249,000000	5,578740E-10	0,756230	0,034860
1250,000000	6,551054E-10	0,756836	0,034543
1251,000000	6,751732E-11	0,757441	0,033598
1252,000000	5,112681E-10	0,758047	0,033377
1253,000000	2,386139E-10	0,758652	0,033263
1254,000000	8,852208E-11	0,759258	0,032540
1255,000000	2,364574E-10	0,759863	0,032378
1256,000000	5,362646E-10	0,760469	0,032014
1257,000000	2,815793E-10	0,761074	0,031278
1258,000000	7,655402E-10	0,761680	0,030483
1259,000000	2,359809E-10	0,762285	0,029915
1260,000000	8,087302E-10	0,762891	0,028659
1261,000000	1,931745E-10	0,763496	0,027768
1262,000000	6,549567E-10	0,764102	0,026626
1263,000000	3,994047E-10	0,764707	0,026937
1264,000000	3,391571E-10	0,765312	0,025358
1265,000000	6,316525E-10	0,765918	0,024707
1266,000000	2,006380E-10	0,766523	0,023158
1267,000000	2,125624E-10	0,767129	0,022070
1268,000000	7,555659E-11	0,767734	0,020569
1269,000000	7,363119E-10	0,768340	0,019397
1270,000000	3,501580E-10	0,768945	0,017968
1271,000000	6,635303E-10	0,769551	0,016521
1272,000000	8,023596E-11	0,770156	0,015983
1273,000000	2,997476E-10	0,770762	0,014195
1274,000000	3,178604E-10	0,771367	0,012706
1275,000000	6,216060E-11	0,771973	0,011564
1276,000000	5,470555E-10	0,772578	0,010541
1277,000000	5,706533E-10	0,773184	0,009005
1278,000000	3,232166E-10	0,773789	0,007791
1279,000000	9,358210E-11	0,774395	0,006637
1280,000000	3,426923E-10	0,775000	0,005112
1281,000000	3,821615E-10	0,775605	0,003629
1282,000000	2,015907E-10	0,776211	0,002929
1283,000000	4,181119E-10	0,776816	0,001470
1284,000000	1,662365E-10	0,777422	-0,000347
1285,000000	1,110764E-9	0,778027	-0,001591
1286,000000	3,414457E-10	0,778633	-0,002745
1287,000000	5,076706E-11	0,779238	-0,004067
1288,000000	1,105580E-10	0,779844	-0,004952
1289,000000	2,552244E-10	0,780449	-0,006159
1290,000000	6,757087E-10	0,781055	-0,008360
1291,000000	1,906866E-10	0,781660	-0,008121
1292,000000	1,278910E-10	0,782266	-0,009950
1293,000000	7,395989E-10	0,782871	-0,010220
1294,000000	6,571173E-10	0,783477	-0,012175
1295,000000	1,961010E-10	0,784082	-0,013275
1296,000000	4,907478E-10	0,784687	-0,013771
1297,000000	3,376026E-10	0,785293	-0,015488
1298,000000	3,114736E-10	0,785898	-0,015230
1299,000000	1,426705E-10	0,786504	-0,016654
1300,000000	1,765947E-10	0,787109	-0,018232
1301,000000	6,974940E-10	0,787715	-0,018196
1302,000000	2,396903E-10	0,788320	-0,020259
1303,000000	7,152390E-10	0,788926	-0,022071
1304,000000	1,058131E-10	0,789531	-0,021628
1305,000000	3,191153E-10	0,790137	-0,022478
1306,000000	1,346165E-10	0,790742	-0,023727
1307,000000	8,811538E-10	0,791348	-0,024588
1308,000000	5,474161E-10	0,791953	-0,024869
1309,000000	4,511512E-10	0,792559	-0,025085
1310,000000	2,022896E-11	0,793164	-0,025497
1311,000000	3,403386E-11	0,793770	-0,026843
1312,000000	7,145176E-10	0,794375	-0,027464
1313,000000	1,937329E-10	0,794980	-0,027799
1314,000000	4,224699E-10	0,795586	-0,028320
1315,000000	5,447905E-10	0,796191	-0,027901
1316,000000	2,547476E-10	0,796797	-0,028642
1317,000000	8,223558E-10	0,797402	-0,029198
1318,000000	1,027465E-9	0,798008	-0,029258
1319,000000	3,347805E-10	0,798613	-0,028421
1320,000000	5,586433E-10	0,799219	-0,029587
1321,000000	1,926682E-10	0,799824	-0,029019
1322,000000	6,211397E-11	0,800430	-0,028547
1323,000000	7,213687E-10	0,801035	-0,028959
1324,000000	6,846369E-10	0,801641	-0,028367
1325,000000	2,747333E-10	0,802246	-0,028995
1326,000000	2,328842E-10	0,802852	-0,027853
1327,000000	1,135654E-9	0,803457	-0,027297
1328,000000	5,299809E-10	0,804063	-0,028086
1329,000000	3,844723E-10	0,804668	-0,027183
1330,000000	1,757444E-10	0,805273	-0,025886
1331,000000	8,723368E-11	0,805879	-0,026275
1332,000000	4,075112E-10	0,806484	-0,025455
1333,000000	4,875128E-10	0,807090	-0,024092
1334,000000	7,150613E-10	0,807695	-0,023787
1335,000000	5,715980E-10	0,808301	-0,022896
1336,000000	2,080429E-10	0,808906	-0,022980
1337,000000	2,598167E-10	0,809512	-0,020863
1338,000000	6,553772E-10	0,810117	-0,020163
1339,000000	6,163578E-10	0,810723	-0,019548
1340,000000	1,702850E-10	0,811328	-0,017712
1341,000000	2,923782E-10	0,811934	-0,017586
1342,000000	6,534674E-10	0,812539	-0,015601
1343,000000	1,144044E-10	0,813145	-0,014453
1344,000000	1,613829E-10	0,813750	-0,013126
1345,000000	3,105761E-10	0,814355	-0,012821
1346,000000	1,842835E-12	0,814961	-0,010507
1347,000000	5,791114E-10	0,815566	-0,009442
1348,000000	2,462295E-10	0,816172	-0,008402
1349,000000	4,353824E-10	0,816777	-0,006542
1350,000000	4,209681E-10	0,817383	-0,005831
1351,000000	3,919352E-10	0,817988	-0,004312
1352,000000	3,099903E-10	0,818594	-0,003385
1353,000000	2,027227E-10	0,819199	-0,002261
1354,000000	7,155220E-10	0,819805	-0,000760
1355,000000	8,306863E-10	0,820410	0,001201
1356,000000	3,591950E-10	0,821016	0,002523
1357,000000	3,579661E-10	0,821621	0,003282
1358,000000	4,224226E-10	0,822227	0,004185
1359,000000	4,455348E-11	0,822832	0,006098
1360,000000	2,950075E-10	0,823438	0,006918
1361,000000	4,662299E-10	0,824043	0,008436
1362,000000	5,628648E-10	0,824648	0,009166
1363,000000	4,410911E-10	0,825254	0,010392
1364,000000	1,211181E-10	0,825859	0,011247
1365,000000	1,496921E-10	0,826465	0,013567
1366,000000	3,211334E-10	0,827070	0,014219
1367,000000	1,810263E-10	0,827676	0,015486
1368,000000	1,517636E-10	0,828281	0,016072
1369,000000	7,895970E-10	0,828887	0,017657
1370,000000	4,400574E-10	0,829492	0,018626
1371,000000	3,548616E-10	0,830098	0,019756
1372,000000	1,529366E-9	0,830703	0,021047
1373,000000	1,509606E-10	0,831309	0,021370
1374,000000	6,757571E-10	0,831914	0,022082
1375,000000	2,877103E-10	0,832520	0,023248
1376,000000	2,689943E-10	0,833125	0,024240
1377,000000	8,338762E-10	0,833730	0,025089
1378,000000	3,687861E-10	0,834336	0,025502
1379,000000	2,577165E-10	0,834941	0,025950
1380,000000	9,146333E-10	0,835547	0,027451
1381,000000	2,426832E-10	0,836152	0,027338
1382,000000	2,058768E-10	0,836758	0,028055
1383,000000	1,405359E-10	0,837363	0,027774
1384,000000	3,809737E-10	0,837969	0,029401
1385,000000	3,567530E-10	0,838574	0,030435
1386,000000	4,689310E-10	0,839180	0,031051
1387,000000	1,393803E-10	0,839785	0,030567
1388,000000	9,176851E-10	0,840391	0,030866
1389,000000	3,854483E-10	0,840996	0,031733
1390,000000	2,379123E-10	0,841602	0,030889
1391,000000	1,882769E-10	0,842207	0,031739
1392,000000	3,732253E-10	0,842812	0,031882
1393,000000	6,474993E-10	0,843418	0,031583
1394,000000	5,113530E-10	0,844023	0,032582
1395,000000	2,407712E-10	0,844629	0,031828
1396,000000	7,564714E-10	0,845234	0,032432
1397,000000	3,905740E-10	0,845840	0,031709
1398,000000	4,676107E-10	0,846445	0,032360
1399,000000	8,941476E-10	0,847051	0,030776
1400,000000	4,042155E-10	0,847656	0,031870
1401,000000	2,408476E-10	0,848262	0,031117
1402,000000	6,091317E-10	0,848867	0,030196
1403,000000	1,994656E-10	0,849473	0,030369
1404,000000	3,165240E-10	0,850078	0,029969
1405,000000	5,452376E-10	0,850684	0,029173
1406,000000	7,303003E-10	0,851289	0,028217
1407,000000	9,401120E-11	0,851895	0,028414
1408,000000	3,811304E-10	0,852500	0,026548
1409,000000	1,909999E-10	0,853105	0,026483
1410,000000	3,795276E-10	0,853711	0,025394
1411,000000	5,406083E-10	0,854316	0,025400
1412,000000	4,787930E-10	0,854922	0,024360
1413,000000	4,719987E-10	0,855527	0,023541
1414,000000	5,142655E-10	0,856133	0,021896
1415,000000	4,178704E-10	0,856738	0,021280
1416,000000	6,245405E-10	0,857344	0,019845
1417,000000	4,139395E-10	0,857949	0,018972
1418,000000	3,469905E-10	0,858555	0,018225
1419,000000	9,018736E-10	0,859160	0,017244
1420,000000	1,180913E-10	0,859766	0,015438
1421,000000	2,413284E-10	0,860371	0,014583
1422,000000	5,602222E-10	0,860977	0,013166
1423,000000	7,951806E-11	0,861582	0,011851
1424,000000	5,259519E-10	0,862187	0,011307
1425,000000	4,990325E-10	0,862793	0,009596
1426,000000	3,022028E-10	0,863398	0,008132
1427,000000	2,224405E-10	0,864004	0,006087
1428,000000	4,256540E-11	0,864609	0,004938
1429,000000	4,564718E-10	0,865215	0,003976
1430,000000	5,055570E-10	0,865820	0,002971
1431,000000	9,758324E-10	0,866426	0,001578
1432,000000	3,898597E-10	0,867031	0,000382
1433,000000	6,984894E-10	0,867637	-0,001729
1434,000000	1,142429E-9	0,868242	-0,001155
1435,000000	6,687535E-10	0,868848	-0,002691
1436,000000	6,232395E-10	0,869453	-0,004700
1437,000000	9,261594E-10	0,870059	-0,005591
1438,000000	1,019648E-9	0,870664	-0,007015
1439,000000	2,750202E-10	0,871270	-0,008408
1440,000000	2,309460E-10	0,871875	-0,008587
1441,000000	4,702539E-10	0,872480	-0,010722
1442,000000	2,680198E-10	0,873086	-0,011015
1443,000000	1,000742E-10	0,873691	-0,012378
1444,000000	2,992716E-10	0,874297	-0,013933
1445,000000	7,958583E-11	0,874902	-0,013813
1446,000000	8,906545E-10	0,875508	-0,014890
1447,000000	9,815073E-10	0,876113	-0,015386
1448,000000	3,814184E-10	0,876719	-0,016869
1449,000000	9,543834E-10	0,877324	-0,018124
1450,000000	2,129966E-10	0,877930	-0,018292
1451,000000	2,080196E-10	0,878535	-0,019900
1452,000000	8,618761E-10	0,879141	-0,019637
1453,000000	3,182992E-10	0,879746	-0,021228
1454,000000	4,162517E-10	0,880352	-0,020815
1455,000000	2,258331E-10	0,880957	-0,021497
1456,000000	3,622992E-10	0,881563	-0,023159
1457,000000	2,899349E-10	0,882168	-0,023070
1458,000000	2,395826E-10	0,882773	-0,023596
1459,000000	4,798008E-10	0,883379	-0,023004
1460,000000	3,591328E-10	0,883984	-0,024642
1461,000000	1,988314E-10	0,884590	-0,024923
1462,000000	2,169849E-10	0,885195	-0,024696
1463,000000	2,573659E-10	0,885801	-0,025706
1464,000000	4,035770E-10	0,886406	-0,025342
1465,000000	6,537835E-11	0,887012	-0,025706
1466,000000	1,821254E-10	0,887617	-0,024899
1467,000000	3,369476E-10	0,888223	-0,025832
1468,000000	3,958764E-10	0,888828	-0,025611
1469,000000	1,949564E-10	0,889434	-0,025575
1470,000000	7,270095E-10	0,890039	-0,026245
1471,000000	3,183222E-10	0,890645	-0,026149
1472,000000	1,013965E-9	0,891250	-0,024780
1473,000000	6,923190E-10	0,891855	-0,024762
1474,000000	2,390833E-10	0,892461	-0,025162
1475,000000	3,846809E-10	0,893066	-0,024433
1476,000000	1,689799E-10	0,893672	-0,024546
1477,000000	2,810195E-10	0,894277	-0,023972
1478,000000	3,909890E-10	0,894883	-0,023590
1479,000000	5,167211E-10	0,895488	-0,022998
1480,000000	1,367029E-10	0,896094	-0,022256
1481,000000	6,663880E-10	0,896699	-0,022017
1482,000000	1,090246E-9	0,897305	-0,020295
1483,000000	3,410539E-10	0,897910	-0,021318
1484,000000	5,766680E-11	0,898516	-0,019936
1485,000000	8,978420E-10	0,899121	-0,019189
1486,000000	7,009868E-10	0,899727	-0,018286
1487,000000	2,915763E-10	0,900332	-0,016988
1488,000000	4,251039E-10	0,900937	-0,016767
1489,000000	6,380216E-10	0,901543	-0,015499
1490,000000	7,214210E-10	0,902148	-0,014333
1491,000000	7,101926E-10	0,902754	-0,013891
1492,000000	8,371753E-10	0,903359	-0,011720
1493,000000	3,984920E-10	0,903965	-0,011762
1494,000000	7,799873E-10	0,904570	-0,010208
1495,000000	1,370983E-10	0,905176	-0,008647
1496,000000	4,069534E-10	0,905781	-0,007750
1497,000000	6,353380E-10	0,906387	-0,005950
1498,000000	2,855833E-10	0,906992	-0,006082
1499,000000	5,875846E-10	0,907598	-0,004443
1500,000000	8,452984E-10	0,908203	-0,003517
1501,000000	4,117060E-10	0,908809	-0,001513
1502,000000	3,715859E-10	0,909414	-0,000521
1503,000000	5,110713E-10	0,910020	0,000454
1504,000000	6,962491E-10	0,910625	0,002284
1505,000000	1,917006E-10	0,911230	0,003336
1506,000000	3,053270E-10	0,911836	0,004370
1507,000000	5,493870E-10	0,912441	0,005208
1508,000000	4,299142E-10	0,913047	0,006188
1509,000000	5,837054E-10	0,913652	0,007839
1510,000000	4,950602E-10	0,914258	0,009309
1511,000000	7,455262E-10	0,914863	0,010529
1512,000000	1,162766E-9	0,915469	0,010356
1513,000000	1,723690E-10	0,916074	0,012353
1514,000000	1,816403E-10	0,916680	0,013417
1515,000000	8,164230E-10	0,917285	0,014637
1516,000000	2,908709E-10	0,917891	0,015301
1517,000000	2,106165E-10	0,918496	0,016066
1518,000000	8,108755E-10	0,919102	0,017232
1519,000000	7,956009E-10	0,919707	0,017962
1520,000000	3,435917E-10	0,920312	0,020061
1521,000000	6,021874E-10	0,920918	0,019798
1522,000000	4,123539E-10	0,921523	0,021298
1523,000000	4,071694E-10	0,922129	0,021280
1524,000000	8,602134E-10	0,922734	0,023301
1525,000000	7,800636E-10	0,923340	0,023606
1526,000000	4,806773E-10	0,923945	0,024115
1527,000000	9,702995E-10	0,924551	0,025323
1528,000000	9,433627E-10	0,925156	0,025586
1529,000000	4,990301E-10	0,925762	0,026190
1530,000000	6,105999E-10	0,926367	0,027290
1531,000000	4,858866E-10	0,926973	0,027756
1532,000000	6,664284E-10	0,927578	0,028402
1533,000000	8,523597E-10	0,928184	0,027619
1534,000000	6,212099E-10	0,928789	0,027756
1535,000000	4,058414E-10	0,929395	0,028193
1536,000000	7,860868E-10	0,930000	0,029126
1537,000000	6,954041E-10	0,930605	0,029795
1538,000000	6,704573E-10	0,931211	0,028767
1539,000000	1,842752E-10	0,931816	0,030489
1540,000000	3,318689E-10	0,932422	0,029586
1541,000000	2,779305E-10	0,933027	0,030172
1542,000000	2,104573E-10	0,933633	0,029771
1543,000000	5,269820E-10	0,934238	0,029132
1544,000000	1,029708E-9	0,934844	0,029490
1545,000000	5,494951E-10	0,935449	0,029233
1546,000000	8,399569E-10	0,936055	0,029108
1547,000000	6,150262E-10	0,936660	0,029072
1548,000000	6,018117E-10	0,937266	0,028300
1549,000000	6,446152E-10	0,937871	0,027487
1550,000000	1,047000E-9	0,938477	0,027356
1551,000000	4,582417E-10	0,939082	0,027804
1552,000000	3,259385E-10	0,939688	0,026297
1553,000000	5,693733E-10	0,940293	0,026208
1554,000000	7,648394E-10	0,940898	0,025239
1555,000000	4,183297E-10	0,941504	0,024796
1556,000000	8,594351E-10	0,942109	0,024390
1557,000000	6,627851E-10	0,942715	0,023642
1558,000000	3,838281E-10	0,943320	0,022363
1559,000000	2,997943E-10	0,943926	0,022446
1560,000000	1,108976E-10	0,944531	0,021298
1561,000000	6,228055E-10	0,945137	0,020479
1562,000000	6,781414E-10	0,945742	0,019277
1563,000000	1,105662E-9	0,946348	0,018679
1564,000000	2,101053E-10	0,946953	0,017274
1565,000000	1,623064E-10	0,947559	0,017017
1566,000000	2,620775E-10	0,948164	0,016252
1567,000000	3,549672E-10	0,948770	0,015008
1568,000000	6,729623E-10	0,949375	0,014081
1569,000000	3,097040E-10	0,949980	0,012365
1570,000000	1,409702E-9	0,950586	0,012658
1571,000000	6,013789E-10	0,951191	0,011091
1572,000000	5,699993E-10	0,951797	0,010147
1573,000000	1,351010E-9	0,952402	0,008436
1574,000000	6,148556E-10	0,953008	0,008054
1575,000000	6,991612E-10	0,953613	0,006063
1576,000000	4,944664E-10	0,954219	0,004556
1577,000000	6,378968E-10	0,954824	0,003569
1578,000000	9,493233E-10	0,955430	0,002768
1579,000000	7,461679E-10	0,956035	0,001518
1580,000000	5,455551E-10	0,956641	-0,000192
1581,000000	3,554587E-10	0,957246	-0,001472
1582,000000	1,403551E-9	0,957852	-0,001298
1583,000000	9,148259E-10	0,958457	-0,004061
1584,000000	3,217922E-10	0,959063	-0,003899
1585,000000	7,237675E-10	0,959668	-0,005382
1586,000000	5,738342E-10	0,960273	-0,006417
1587,000000	3,151981E-10	0,960879	-0,007415
1588,000000	1,175860E-9	0,961484	-0,008689
1589,000000	1,048430E-9	0,962090	-0,009460
1590,000000	6,198841E-10	0,962695	-0,010375
1591,000000	3,068932E-10	0,963301	-0,011714
1592,000000	9,574666E-10	0,963906	-0,012928
1593,000000	3,589774E-10	0,964512	-0,013921
1594,000000	9,419735E-10	0,965117	-0,014387
1595,000000	5,805397E-10	0,965723	-0,015488
1596,000000	6,302446E-10	0,966328	-0,015780
1597,000000	8,472371E-10	0,966934	-0,017724
1598,000000	1,249634E-9	0,967539	-0,018358
1599,000000	1,354138E-9	0,968145	-0,018812
1600,000000	4,872970E-10	0,968750	-0,018651
1601,000000	5,469339E-10	0,969355	-0,019524
1602,000000	7,697107E-10	0,969961	-0,020773
1603,000000	4,926219E-10	0,970566	-0,021204
1604,000000	3,321877E-10	0,971172	-0,021766
1605,000000	4,157449E-10	0,971777	-0,021682
1606,000000	1,160646E-9	0,972383	-0,022747
1607,000000	4,460347E-10	0,972988	-0,023327
1608,000000	7,489093E-10	0,973594	-0,023775
1609,000000	6,833735E-10	0,974199	-0,023966
1610,000000	3,895716E-10	0,974805	-0,024403
1611,000000	1,528209E-9	0,975410	-0,025079
1612,000000	7,833460E-10	0,976016	-0,024104
1613,000000	1,190932E-9	0,976621	-0,024833
1614,000000	7,027823E-10	0,977227	-0,024343
1615,000000	5,759571E-10	0,977832	-0,023889
1616,000000	6,626803E-10	0,978437	-0,024642
1617,000000	5,578984E-10	0,979043	-0,024403
1618,000000	6,594006E-10	0,979648	-0,024074
1619,000000	7,311190E-10	0,980254	-0,024038
1620,000000	1,425298E-9	0,980859	-0,023422
1621,000000	2,123860E-10	0,981465	-0,023392
1622,000000	5,639174E-10	0,982070	-0,023416
1623,000000	7,249122E-10	0,982676	-0,023016
1624,000000	6,465695E-10	0,983281	-0,022280
1625,000000	4,057803E-10	0,983887	-0,022214
1626,000000	1,570411E-10	0,984492	-0,021874
1627,000000	6,190487E-10	0,985098	-0,020618
1628,000000	9,258953E-10	0,985703	-0,020618
1629,000000	1,826420E-10	0,986309	-0,019458
1630,000000	5,960399E-10	0,986914	-0,018854
1631,000000	3,584456E-10	0,987520	-0,019422
1632,000000	1,023990E-9	0,988125	-0,017072
1633,000000	1,495808E-9	0,988730	-0,016911
1634,000000	1,269777E-9	0,989336	-0,016474
1635,000000	4,577085E-10	0,989941	-0,014931
1636,000000	9,989359E-10	0,990547	-0,014471
1637,000000	1,132043E-9	0,991152	-0,013664
1638,000000	1,051800E-9	0,991758	-0,012103
1639,000000	3,739172E-10	0,992363	-0,011487
1640,000000	9,089672E-10	0,992969	-0,010602
1641,000000	7,495755E-10	0,993574	-0,009819
1642,000000	9,819025E-10	0,994180	-0,008725
1643,000000	6,389073E-10	0,994785	-0,008055
1644,000000	6,369912E-10	0,995391	-0,006829
1645,000000	9,245114E-10	0,995996	-0,005843
1646,000000	1,158960E-9	0,996602	-0,005526
1647,000000	7,291333E-10	0,997207	-0,003768
1648,000000	1,914782E-9	0,997812	-0,002763
1649,000000	6,283749E-10	0,998418	-0,002075
1650,000000	3,913503E-10	0,999023	-0,001035
1651,000000	1,068247E-9	0,999629	0,000478
1652,000000	5,639951E-10	1,000234	0,001841
1653,000000	8,958115E-10	1,000840	0,002517
1654,000000	8,401377E-10	1,001445	0,003228
1655,000000	8,187851E-10	1,002051	0,004855
1656,000000	1,193695E-9	1,002656	0,004909
1657,000000	3,758969E-10	1,003262	0,006391
1658,000000	9,559914E-10	1,003867	0,007850
1659,000000	9,870588E-10	1,004473	0,008652
1660,000000	3,059724E-10	1,005078	0,010003
1661,000000	3,933404E-10	1,005684	0,010840
1662,000000	8,284087E-10	1,006289	0,012198
1663,000000	7,903129E-10	1,006895	0,012443
1664,000000	6,340054E-10	1,007500	0,014410
1665,000000	6,132476E-10	1,008105	0,014237
1666,000000	6,471226E-10	1,008711	0,016150
1667,000000	7,714624E-10	1,009316	0,016401
1668,000000	9,625339E-10	1,009922	0,018069
1669,000000	1,464827E-9	1,010527	0,018685
1670,000000	8,567239E-10	1,011133	0,018895
1671,000000	5,773300E-10	1,011738	0,019750
1672,000000	7,622748E-10	1,012344	0,020473
1673,000000	1,002029E-9	1,012949	0,021406
1674,000000	7,242181E-10	1,013555	0,022207
1675,000000	6,104996E-10	1,014160	0,022632
1676,000000	1,795629E-9	1,014766	0,023038
1677,000000	1,603403E-9	1,015371	0,024169
1678,000000	1,283666E-9	1,015977	0,024581
1679,000000	7,942603E-10	1,016582	0,024862
1680,000000	1,276087E-9	1,017187	0,025167
1681,000000	1,104549E-9	1,017793	0,026411
1682,000000	1,169404E-9	1,018398	0,026058
1683,000000	1,322130E-9	1,019004	0,027110
1684,000000	8,422804E-10	1,019609	0,026782
1685,000000	5,762239E-10	1,020215	0,027015
1686,000000	7,759139E-10	1,020820	0,026805
1687,000000	1,234635E-9	1,021426	0,027601
1688,000000	1,506922E-9	1,022031	0,026566
1689,000000	7,271647E-10	1,022637	0,027804
1690,000000	1,554174E-9	1,023242	0,027397
1691,000000	1,047122E-9	1,023848	0,027057
1692,000000	1,187695E-9	1,024453	0,028007
1693,000000	8,126319E-10	1,025059	0,026835
1694,000000	6,877135E-10	1,025664	0,027290
1695,000000	7,606485E-10	1,026270	0,027673
1696,000000	9,067300E-10	1,026875	0,026877
1697,000000	1,005349E-9	1,027480	0,026692
1698,000000	9,347915E-10	1,028086	0,025669
1699,000000	1,118372E-9	1,028691	0,025532
1700,000000	9,516475E-10	1,029297	0,024838
1701,000000	7,545944E-10	1,029902	0,024593
1702,000000	1,558396E-9	1,030508	0,024306
1703,000000	1,261949E-9	1,031113	0,023439
1704,000000	1,298674E-9	1,031719	0,022931
1705,000000	9,078937E-10	1,032324	0,021478
1706,000000	1,110942E-9	1,032930	0,021496
1707,000000	1,397581E-9	1,033535	0,020216
1708,000000	7,672449E-10	1,034141	0,020013
1709,000000	1,547453E-9	1,034746	0,018919
1710,000000	1,068080E-9	1,035352	0,017591
1711,000000	7,281858E-10	1,035957	0,017854
1712,000000	1,299088E-9	1,036563	0,015289
1713,000000	1,861279E-9	1,037168	0,015462
1714,000000	1,206344E-9	1,037773	0,014661
1715,000000	9,619387E-10	1,038379	0,013053
1716,000000	1,068551E-9	1,038984	0,012861
1717,000000	1,685243E-9	1,039590	0,010822
1718,000000	8,273529E-10	1,040195	0,010356
1719,000000	9,928846E-10	1,040801	0,008801
1720,000000	9,081096E-10	1,041406	0,009262
1721,000000	1,267631E-9	1,042012	0,007462
1722,000000	1,709977E-9	1,042617	0,005584
1723,000000	7,781760E-10	1,043223	0,005823
1724,000000	6,673031E-10	1,043828	0,003832
1725,000000	1,196337E-9	1,044434	0,003695
1726,000000	1,116378E-9	1,045039	0,002541
1727,000000	1,070227E-9	1,045645	0,000878
1728,000000	1,986461E-9	1,046250	0,000268
1729,000000	3,217039E-9	1,046855	-0,000736
1730,000000	1,166873E-9	1,047461	-0,001555
1731,000000	1,932229E-9	1,048066	-0,002673
1732,000000	1,271593E-9	1,048672	-0,003630
1733,000000	1,705110E-9	1,049277	-0,005382
1734,000000	9,519845E-10	1,049883	-0,005173
1735,000000	1,201842E-9	1,050488	-0,006644
1736,000000	1,012871E-9	1,051094	-0,008055
1737,000000	1,679028E-9	1,051699	-0,008270
1738,000000	1,659303E-9	1,052305	-0,008252
1739,000000	1,832567E-9	1,052910	-0,009227
1740,000000	8,090623E-10	1,053516	-0,010871
1741,000000	1,862949E-9	1,054121	-0,011481
1742,000000	1,347168E-9	1,054727	-0,012868
1743,000000	1,416723E-9	1,055332	-0,013783
1744,000000	1,923909E-9	1,055937	-0,014423
1745,000000	1,738160E-9	1,056543	-0,014609
1746,000000	2,844921E-9	1,057148	-0,015517
1747,000000	1,134341E-9	1,057754	-0,016420
1748,000000	1,704917E-9	1,058359	-0,016665
1749,000000	1,197605E-9	1,058965	-0,018142
1750,000000	6,979246E-10	1,059570	-0,018459
1751,000000	1,807666E-9	1,060176	-0,019063
1752,000000	1,222705E-9	1,060781	-0,018950
1753,000000	1,324073E-9	1,061387	-0,019368
1754,000000	6,919301E-10	1,061992	-0,020175
1755,000000	1,672021E-9	1,062598	-0,021120
1756,000000	1,899041E-9	1,063203	-0,020720
1757,000000	2,733509E-9	1,063809	-0,021969
1758,000000	7,419137E-10	1,064414	-0,022382
1759,000000	3,000535E-9	1,065020	-0,022370
1760,000000	2,481490E-9	1,065625	-0,022436
1761,000000	1,969613E-9	1,066230	-0,021886
1762,000000	1,352208E-9	1,066836	-0,022370
1763,000000	1,809967E-9	1,067441	-0,021790
1764,000000	1,700667E-9	1,068047	-0,022448
1765,000000	2,333505E-9	1,068652	-0,022418
1766,000000	8,110228E-10	1,069258	-0,022777
1767,000000	2,043548E-9	1,069863	-0,022591
1768,000000	2,368857E-9	1,070469	-0,022442
1769,000000	3,205460E-9	1,071074	-0,021329
1770,000000	1,591923E-9	1,071680	-0,021276
1771,000000	2,604184E-9	1,072285	-0,021874
1772,000000	2,103139E-9	1,072891	-0,020929
1773,000000	1,694823E-9	1,073496	-0,021294
1774,000000	1,912495E-9	1,074102	-0,020074
1775,000000	1,329862E-9	1,074707	-0,020163
1776,000000	2,678869E-9	1,075312	-0,019679
1777,000000	2,858446E-9	1,075918	-0,018722
1778,000000	3,214816E-9	1,076523	-0,018220
1779,000000	1,600992E-9	1,077129	-0,017042
1780,000000	1,318760E-9	1,077734	-0,015906
1781,000000	2,156648E-9	1,078340	-0,016480
1782,000000	2,025362E-9	1,078945	-0,014310
1783,000000	1,342110E-9	1,079551	-0,013490
1784,000000	2,010380E-9	1,080156	-0,013586
1785,000000	1,848915E-9	1,080762	-0,013389
1786,000000	3,216181E-9	1,081367	-0,011810
1787,000000	2,906604E-9	1,081973	-0,011194
1788,000000	2,349901E-9	1,082578	-0,009765
1789,000000	2,428496E-9	1,083184	-0,009807
1790,000000	3,174464E-9	1,083789	-0,008073
1791,000000	2,838133E-9	1,084395	-0,006817
1792,000000	2,099355E-9	1,085000	-0,006279
1793,000000	4,070673E-9	1,085605	-0,005280
1794,000000	2,812251E-9	1,086211	-0,004360
1795,000000	2,329116E-9	1,086816	-0,003050
1796,000000	3,401507E-9	1,087422	-0,002255
1797,000000	3,384019E-9	1,088027	-0,000886
1798,000000	3,186292E-9	1,088633	-0,000898
1799,000000	2,136174E-9	1,089238	0,001704
1800,000000	2,720782E-9	1,089844	0,001853
1801,000000	2,732082E-9	1,090449	0,002965
1802,000000	3,782516E-9	1,091055	0,004083
1803,000000	2,411696E-9	1,091660	0,004460
1804,000000	2,841160E-9	1,092266	0,005178
1805,000000	3,271468E-9	1,092871	0,007916
1806,000000	2,044893E-9	1,093477	0,008161
1807,000000	2,840271E-9	1,094082	0,009226
1808,000000	2,220395E-9	1,094688	0,009782
1809,000000	2,032177E-9	1,095293	0,010589
1810,000000	2,389334E-9	1,095898	0,011390
1811,000000	3,053922E-9	1,096504	0,012491
1812,000000	2,195013E-9	1,097109	0,012807
1813,000000	3,261953E-9	1,097715	0,013848
1814,000000	3,110844E-9	1,098320	0,015636
1815,000000	3,147725E-9	1,098926	0,015474
1816,000000	2,371463E-9	1,099531	0,016192
1817,000000	2,806788E-9	1,100137	0,017220
1818,000000	2,289783E-9	1,100742	0,017753
1819,000000	2,718634E-9	1,101348	0,018063
1820,000000	4,054001E-9	1,101953	0,018608
1821,000000	4,670599E-9	1,102559	0,019917
1822,000000	3,398493E-9	1,103164	0,019983
1823,000000	3,633687E-9	1,103770	0,021633
1824,000000	3,072528E-9	1,104375	0,022153
1825,000000	3,189219E-9	1,104980	0,022327
1826,000000	2,814598E-9	1,105586	0,023116
1827,000000	2,585952E-9	1,106191	0,023003
1828,000000	2,819746E-9	1,106797	0,023672
1829,000000	3,532461E-9	1,107402	0,024485
1830,000000	1,701753E-9	1,108008	0,024605
1831,000000	2,951483E-9	1,108613	0,024145
1832,000000	2,850399E-9	1,109219	0,024569
1833,000000	4,415248E-9	1,109824	0,024976
1834,000000	3,289728E-9	1,110430	0,025006
1835,000000	3,175183E-9	1,111035	0,025909
1836,000000	5,165134E-9	1,111641	0,025681
1837,000000	3,883176E-9	1,112246	0,025592
1838,000000	4,216549E-9	1,112852	0,025466
1839,000000	3,089011E-9	1,113457	0,026650
1840,000000	4,085992E-9	1,114062	0,026578
1841,000000	4,151207E-9	1,114668	0,025424
1842,000000	4,052328E-9	1,115273	0,025998
1843,000000	4,600462E-9	1,115879	0,025101
1844,000000	2,906983E-9	1,116484	0,025926
1845,000000	4,037919E-9	1,117090	0,024665
1846,000000	3,972000E-9	1,117695	0,024061
1847,000000	6,785648E-9	1,118301	0,024904
1848,000000	6,330630E-9	1,118906	0,023852
1849,000000	4,094556E-9	1,119512	0,024031
1850,000000	4,279439E-9	1,120117	0,023290
1851,000000	5,170103E-9	1,120723	0,021926
1852,000000	5,091459E-9	1,121328	0,021143
1853,000000	5,108482E-9	1,121934	0,020712
1854,000000	4,687216E-9	1,122539	0,019887
1855,000000	5,170169E-9	1,123145	0,019481
1856,000000	2,742423E-9	1,123750	0,018614
1857,000000	4,059350E-9	1,124355	0,018243
1858,000000	4,686301E-9	1,124961	0,017280
1859,000000	5,100935E-9	1,125566	0,016144
1860,000000	5,434190E-9	1,126172	0,015271
1861,000000	4,560761E-9	1,126777	0,014577
1862,000000	4,012165E-9	1,127383	0,013950
1863,000000	4,521112E-9	1,127988	0,012969
1864,000000	4,963016E-9	1,128594	0,012419
1865,000000	3,456245E-9	1,129199	0,010768
1866,000000	4,805118E-9	1,129805	0,009752
1867,000000	4,405004E-9	1,130410	0,008999
1868,000000	7,887381E-9	1,131016	0,007605
1869,000000	5,956453E-9	1,131621	0,006182
1870,000000	3,756103E-9	1,132227	0,005184
1871,000000	5,830645E-9	1,132832	0,006021
1872,000000	6,013886E-9	1,133438	0,004580
1873,000000	6,099040E-9	1,134043	0,004012
1874,000000	5,860536E-9	1,134648	0,001889
1875,000000	6,219200E-9	1,135254	0,001644
1876,000000	7,393017E-9	1,135859	-0,000120
1877,000000	6,757128E-9	1,136465	-0,001107
1878,000000	7,262413E-9	1,137070	-0,001131
1879,000000	7,245058E-9	1,137676	-0,002644
1880,000000	6,850534E-9	1,138281	-0,003959
1881,000000	5,901623E-9	1,138887	-0,004587
1882,000000	7,663462E-9	1,139492	-0,005436
1883,000000	6,203825E-9	1,140098	-0,006937
1884,000000	7,997943E-9	1,140703	-0,007559
1885,000000	7,233648E-9	1,141309	-0,008384
1886,000000	7,159149E-9	1,141914	-0,009693
1887,000000	5,666775E-9	1,142520	-0,009891
1888,000000	7,221571E-9	1,143125	-0,011057
1889,000000	6,195633E-9	1,143730	-0,011158
1890,000000	6,027071E-9	1,144336	-0,011972
1891,000000	6,797611E-9	1,144941	-0,013933
1892,000000	9,630729E-9	1,145547	-0,013395
1893,000000	9,399315E-9	1,146152	-0,013090
1894,000000	8,053538E-9	1,146758	-0,014471
1895,000000	8,383639E-9	1,147363	-0,014943
1896,000000	9,160336E-9	1,147969	-0,015063
1897,000000	9,769821E-9	1,148574	-0,015565
1898,000000	9,346414E-9	1,149180	-0,017431
1899,000000	9,379033E-9	1,149785	-0,016313
1900,000000	7,301223E-9	1,150391	-0,016492
1901,000000	8,921472E-9	1,150996	-0,018286
1902,000000	9,539019E-9	1,151602	-0,018292
1903,000000	9,598248E-9	1,152207	-0,019476
1904,000000	9,919203E-9	1,152813	-0,018872
1905,000000	1,163128E-8	1,153418	-0,019888
1906,000000	7,847296E-9	1,154023	-0,019470
1907,000000	9,091094E-9	1,154629	-0,019847
1908,000000	1,070929E-8	1,155234	-0,020223
1909,000000	9,772631E-9	1,155840	-0,019314
1910,000000	1,263708E-8	1,156445	-0,019978
1911,000000	1,098897E-8	1,157051	-0,020044
1912,000000	9,446898E-9	1,157656	-0,019936
1913,000000	1,390106E-8	1,158262	-0,020361
1914,000000	1,689322E-8	1,158867	-0,020803
1915,000000	1,426384E-8	1,159473	-0,019763
1916,000000	1,618114E-8	1,160078	-0,019930
1917,000000	1,336741E-8	1,160684	-0,019296
1918,000000	1,651242E-8	1,161289	-0,018585
1919,000000	1,074135E-8	1,161895	-0,018866
1920,000000	2,056445E-8	1,162500	-0,019219
1921,000000	1,268909E-8	1,163105	-0,017837
1922,000000	1,711109E-8	1,163711	-0,018543
1923,000000	1,354736E-8	1,164316	-0,017425
1924,000000	1,838421E-8	1,164922	-0,017162
1925,000000	1,404046E-8	1,165527	-0,016946
1926,000000	1,854468E-8	1,166133	-0,016229
1927,000000	1,223198E-8	1,166738	-0,016085
1928,000000	1,905003E-8	1,167344	-0,014997
1929,000000	1,771220E-8	1,167949	-0,013747
1930,000000	2,220861E-8	1,168555	-0,013084
1931,000000	2,790288E-8	1,169160	-0,012599
1932,000000	1,747921E-8	1,169766	-0,011989
1933,000000	1,407923E-8	1,170371	-0,012085
1934,000000	2,668337E-8	1,170977	-0,011236
1935,000000	3,614179E-8	1,171582	-0,010608
1936,000000	2,029839E-8	1,172187	-0,008378
1937,000000	3,444374E-8	1,172793	-0,008402
1938,000000	2,369095E-8	1,173398	-0,007206
1939,000000	2,791304E-8	1,174004	-0,005890
1940,000000	3,482554E-8	1,174609	-0,005950
1941,000000	3,089071E-8	1,175215	-0,004497
1942,000000	4,206365E-8	1,175820	-0,003134
1943,000000	3,614220E-8	1,176426	-0,002279
1944,000000	4,725316E-8	1,177031	-0,002046
1945,000000	3,962334E-8	1,177637	-0,000491
1946,000000	4,202208E-8	1,178242	0,001249
1947,000000	4,462535E-8	1,178848	0,000974
1948,000000	3,645545E-8	1,179453	0,002439
1949,000000	3,849231E-8	1,180059	0,002798
1950,000000	4,477473E-8	1,180664	0,003473
1951,000000	5,169707E-8	1,181270	0,004903
1952,000000	4,539693E-8	1,181875	0,005746
1953,000000	5,352742E-8	1,182480	0,007378
1954,000000	5,147212E-8	1,183086	0,007276
1955,000000	6,786686E-8	1,183691	0,009913
1956,000000	5,598298E-8	1,184297	0,009812
1957,000000	6,930825E-8	1,184902	0,010446
1958,000000	6,845346E-8	1,185508	0,011450
1959,000000	9,667407E-8	1,186113	0,012084
1960,000000	1,191210E-8	1,186719	0,013262
1961,000000	7,167218E-8	1,187324	0,013328
1962,000000	7,514582E-8	1,187930	0,013890
1963,000000	5,463123E-8	1,188535	0,015582
1964,000000	6,394038E-8	1,189141	0,015092
1965,000000	1,574388E-7	1,189746	0,016569
1966,000000	1,112791E-7	1,190352	0,016921
1967,000000	1,381689E-7	1,190957	0,018046
1968,000000	1,589990E-7	1,191563	0,017866
1969,000000	1,706280E-7	1,192168	0,019098
1970,000000	2,009676E-7	1,192773	0,019271
1971,000000	2,166952E-7	1,193379	0,019666
1972,000000	2,393732E-7	1,193984	0,020431
1973,000000	2,806151E-7	1,194590	0,020467
1974,000000	3,366038E-7	1,195195	0,021197
1975,000000	3,887831E-7	1,195801	0,021902
1976,000000	4,745227E-7	1,196406	0,021418
1977,000000	5,806109E-7	1,197012	0,022159
1978,000000	6,748809E-7	1,197617	0,022919
1979,000000	8,226886E-7	1,198223	0,022769
1980,000000	1,172024E-6	1,198828	0,022973
1981,000000	1,550976E-6	1,199434	0,023206
1982,000000	2,391920E-6	1,200039	0,023893
1983,000000	3,985624E-6	1,200645	0,023272
1984,000000	7,227635E-6	1,201250	0,023684
1985,000000	1,846530E-5	1,201855	0,023923
1986,000000	0,000143	1,202461	0,024228
1987,000000	0,000214	1,203066	0,023529
1988,000000	2,723804E-5	1,203672	0,024180
1989,000000	9,935132E-6	1,204277	0,023744
1990,000000	5,040206E-6	1,204883	0,023014
1991,000000	3,018734E-6	1,205488	0,022351
1992,000000	2,074035E-6	1,206094	0,022327
1993,000000	1,598501E-6	1,206699	0,022554
1994,000000	1,262590E-6	1,207305	0,022112
1995,000000	9,320290E-7	1,207910	0,022327
1996,000000	9,226272E-7	1,208516	0,020987
1997,000000	7,524385E-7	1,209121	0,021382
1998,000000	6,659970E-7	1,209727	0,020653
1999,000000	6,775682E-7	1,210332	0,020079
