LabVIEW Measurement	
Writer_Version	2
Reader_Version	2
Separator	Tab
Decimal_Separator	,
Multi_Headings	No
X_Columns	Multi
Time_Pref	Relative
Operator	eduardo.wisbecki
Date	2025/07/01
Time	16:15:55,575089581249568981
***End_of_Header***	
	
Channels	2			
Samples	2000		2000	
Date	2025/07/01		2025/07/01	
Time	16:15:56,5509982109069824219		16:15:55,575089581249568981	
Y_Unit_Label			m/s^2	
X_Dimension	Time		Time	
X0	0,0000000000000000E+0		0,0000000000000000E+0	
Delta_X	1,000000		0,000488	
***End_of_Header***				
X_Value	Untitled	X_Value	Acceleration	Comment
0,000000	1,856561E-6	0,000000	-0,049170
1,000000	5,444506E-7	0,000488	-0,050671
2,000000	5,823794E-7	0,000977	-0,052949
3,000000	6,335854E-7	0,001465	-0,054797
4,000000	8,423413E-7	0,001953	-0,057248
5,000000	1,079861E-6	0,002441	-0,059819
6,000000	1,690163E-6	0,002930	-0,060872
7,000000	2,709674E-6	0,003418	-0,062684
8,000000	5,155754E-6	0,003906	-0,064208
9,000000	1,372721E-5	0,004395	-0,066032
10,000000	6,819062E-5	0,004883	-0,067718
11,000000	0,000642	0,005371	-0,068538
12,000000	2,726935E-5	0,005859	-0,069799
13,000000	9,080493E-6	0,006348	-0,072532
14,000000	4,457181E-6	0,006836	-0,071485
15,000000	2,696530E-6	0,007324	-0,073680
16,000000	1,868682E-6	0,007812	-0,074798
17,000000	1,320540E-6	0,008301	-0,075689
18,000000	1,012355E-6	0,008789	-0,076030
19,000000	8,152750E-7	0,009277	-0,076993
20,000000	6,425891E-7	0,009766	-0,078111
21,000000	5,038989E-7	0,010254	-0,079199
22,000000	4,580838E-7	0,010742	-0,079044
23,000000	3,613705E-7	0,011230	-0,080150
24,000000	3,169033E-7	0,011719	-0,080347
25,000000	2,748746E-7	0,012207	-0,080550
26,000000	2,364915E-7	0,012695	-0,081968
27,000000	1,970279E-7	0,013184	-0,080796
28,000000	1,493459E-7	0,013672	-0,080102
29,000000	3,430246E-7	0,014160	-0,080927
30,000000	2,805697E-7	0,014648	-0,080676
31,000000	3,149106E-7	0,015137	-0,080748
32,000000	2,657420E-7	0,015625	-0,080377
33,000000	1,122703E-7	0,016113	-0,079695
34,000000	1,269439E-7	0,016602	-0,079893
35,000000	1,029653E-7	0,017090	-0,078739
36,000000	1,429866E-7	0,017578	-0,077549
37,000000	9,013428E-8	0,018066	-0,077704
38,000000	8,242807E-8	0,018555	-0,076036
39,000000	8,818386E-8	0,019043	-0,075641
40,000000	9,985131E-8	0,019531	-0,074505
41,000000	9,846365E-8	0,020020	-0,073226
42,000000	7,746137E-8	0,020508	-0,072353
43,000000	8,209566E-8	0,020996	-0,069829
44,000000	9,493700E-8	0,021484	-0,068203
45,000000	5,178879E-8	0,021973	-0,067473
46,000000	9,206921E-8	0,022461	-0,065368
47,000000	3,587875E-8	0,022949	-0,063796
48,000000	6,333624E-8	0,023437	-0,062636
49,000000	6,817832E-8	0,023926	-0,060944
50,000000	7,770927E-8	0,024414	-0,058486
51,000000	3,773946E-8	0,024902	-0,056286
52,000000	3,433360E-8	0,025391	-0,053475
53,000000	2,132573E-8	0,025879	-0,051364
54,000000	8,677374E-8	0,026367	-0,049684
55,000000	5,728241E-8	0,026855	-0,047448
56,000000	5,755334E-8	0,027344	-0,046533
57,000000	5,002757E-8	0,027832	-0,043017
58,000000	4,603519E-8	0,028320	-0,040912
59,000000	4,133986E-8	0,028809	-0,037946
60,000000	3,776812E-8	0,029297	-0,035728
61,000000	3,780301E-8	0,029785	-0,034090
62,000000	4,661808E-8	0,030273	-0,031572
63,000000	3,455997E-8	0,030762	-0,028230
64,000000	3,510885E-8	0,031250	-0,026412
65,000000	2,733023E-8	0,031738	-0,024762
66,000000	2,679239E-8	0,032227	-0,021862
67,000000	3,270671E-8	0,032715	-0,019566
68,000000	3,273630E-8	0,033203	-0,018232
69,000000	3,550843E-8	0,033691	-0,014740
70,000000	3,931041E-8	0,034180	-0,010710
71,000000	2,656272E-8	0,034668	-0,009221
72,000000	3,002794E-8	0,035156	-0,005340
73,000000	2,626504E-8	0,035645	-0,003959
74,000000	2,291626E-8	0,036133	-0,002386
75,000000	2,163379E-8	0,036621	0,000819
76,000000	1,892410E-8	0,037109	0,002451
77,000000	2,338846E-8	0,037598	0,007270
78,000000	2,194018E-8	0,038086	0,010350
79,000000	2,772336E-8	0,038574	0,012132
80,000000	2,071572E-8	0,039062	0,014942
81,000000	2,155761E-8	0,039551	0,018279
82,000000	1,901978E-8	0,040039	0,021268
83,000000	1,689800E-8	0,040527	0,022973
84,000000	2,125276E-8	0,041016	0,024635
85,000000	1,794151E-8	0,041504	0,028916
86,000000	2,011434E-8	0,041992	0,031619
87,000000	1,831768E-8	0,042480	0,033257
88,000000	1,065793E-8	0,042969	0,036295
89,000000	1,447567E-8	0,043457	0,037437
90,000000	1,846514E-8	0,043945	0,041180
91,000000	1,310223E-8	0,044434	0,043052
92,000000	1,729678E-8	0,044922	0,045157
93,000000	1,515794E-8	0,045410	0,047943
94,000000	1,543311E-8	0,045898	0,050167
95,000000	2,111809E-8	0,046387	0,052218
96,000000	1,748809E-8	0,046875	0,055573
97,000000	1,651452E-8	0,047363	0,056308
98,000000	1,555951E-8	0,047852	0,059029
99,000000	1,295923E-8	0,048340	0,060966
100,000000	1,704171E-8	0,048828	0,062246
101,000000	9,955812E-9	0,049316	0,065433
102,000000	1,028133E-8	0,049805	0,064973
103,000000	1,008470E-8	0,050293	0,066521
104,000000	1,378477E-8	0,050781	0,069475
105,000000	1,270928E-8	0,051270	0,070253
106,000000	1,234343E-8	0,051758	0,071783
107,000000	1,378194E-8	0,052246	0,073105
108,000000	1,442668E-8	0,052734	0,074073
109,000000	8,835455E-9	0,053223	0,074384
110,000000	1,204825E-8	0,053711	0,076495
111,000000	8,705149E-9	0,054199	0,076627
112,000000	1,054611E-8	0,054687	0,078151
113,000000	1,060419E-8	0,055176	0,079778
114,000000	1,514629E-8	0,055664	0,080800
115,000000	1,210890E-8	0,056152	0,080155
116,000000	9,601037E-9	0,056641	0,080866
117,000000	8,259658E-9	0,057129	0,081907
118,000000	1,138898E-8	0,057617	0,081978
119,000000	1,284085E-8	0,058105	0,082977
120,000000	1,006811E-8	0,058594	0,083455
121,000000	8,745561E-9	0,059082	0,082845
122,000000	6,246097E-9	0,059570	0,082869
123,000000	9,420711E-9	0,060059	0,082756
124,000000	7,257523E-9	0,060547	0,081440
125,000000	8,987552E-9	0,061035	0,082391
126,000000	7,553712E-9	0,061523	0,081960
127,000000	8,579472E-9	0,062012	0,080926
128,000000	1,089247E-8	0,062500	0,079742
129,000000	8,755005E-9	0,062988	0,079742
130,000000	6,522332E-9	0,063477	0,078821
131,000000	4,735946E-9	0,063965	0,077655
132,000000	9,037349E-9	0,064453	0,076393
133,000000	8,150840E-9	0,064941	0,075233
134,000000	6,511495E-9	0,065430	0,073404
135,000000	7,274317E-9	0,065918	0,073123
136,000000	6,880324E-9	0,066406	0,070402
137,000000	6,461566E-9	0,066895	0,069983
138,000000	5,808981E-9	0,067383	0,068417
139,000000	8,513048E-9	0,067871	0,066575
140,000000	5,771171E-9	0,068359	0,065307
141,000000	6,792187E-9	0,068848	0,062850
142,000000	9,678692E-9	0,069336	0,061630
143,000000	5,696158E-9	0,069824	0,059202
144,000000	5,822218E-9	0,070312	0,056918
145,000000	5,305806E-9	0,070801	0,055316
146,000000	3,948147E-9	0,071289	0,052613
147,000000	6,328358E-9	0,071777	0,049928
148,000000	4,938188E-9	0,072266	0,048338
149,000000	4,132235E-9	0,072754	0,046592
150,000000	4,821558E-9	0,073242	0,043973
151,000000	4,817797E-9	0,073730	0,041192
152,000000	5,084863E-9	0,074219	0,039907
153,000000	6,948538E-9	0,074707	0,037921
154,000000	6,399876E-9	0,075195	0,035027
155,000000	6,117064E-9	0,075684	0,033431
156,000000	7,529016E-9	0,076172	0,030650
157,000000	5,705643E-9	0,076660	0,028557
158,000000	6,070257E-9	0,077148	0,026130
159,000000	4,436803E-9	0,077637	0,023935
160,000000	5,304661E-9	0,078125	0,021878
161,000000	4,496611E-9	0,078613	0,019780
162,000000	7,530273E-9	0,079102	0,017268
163,000000	4,156399E-9	0,079590	0,014876
164,000000	5,224715E-9	0,080078	0,012323
165,000000	4,699369E-9	0,080566	0,010864
166,000000	5,635398E-9	0,081055	0,007390
167,000000	4,425788E-9	0,081543	0,004675
168,000000	5,390484E-9	0,082031	0,002176
169,000000	5,726812E-9	0,082520	-0,000736
170,000000	5,998793E-9	0,083008	-0,002984
171,000000	4,117982E-9	0,083496	-0,005807
172,000000	3,764503E-9	0,083984	-0,008193
173,000000	2,701587E-9	0,084473	-0,010578
174,000000	5,372170E-9	0,084961	-0,013598
175,000000	3,260836E-9	0,085449	-0,015547
176,000000	3,344431E-9	0,085937	-0,016642
177,000000	4,273005E-9	0,086426	-0,020229
178,000000	5,385064E-9	0,086914	-0,022759
179,000000	4,902039E-9	0,087402	-0,025312
180,000000	5,709435E-9	0,087891	-0,028003
181,000000	6,007504E-9	0,088379	-0,029659
182,000000	5,495610E-9	0,088867	-0,032314
183,000000	2,517687E-9	0,089355	-0,032918
184,000000	3,683791E-9	0,089844	-0,035770
185,000000	3,767064E-9	0,090332	-0,039298
186,000000	3,876594E-9	0,090820	-0,041181
187,000000	4,930429E-9	0,091309	-0,043125
188,000000	2,999381E-9	0,091797	-0,044685
189,000000	2,944304E-9	0,092285	-0,046922
190,000000	4,113213E-9	0,092773	-0,049373
191,000000	4,167979E-9	0,093262	-0,051538
192,000000	3,935660E-9	0,093750	-0,053625
193,000000	5,582989E-9	0,094238	-0,055281
194,000000	3,752363E-9	0,094727	-0,056399
195,000000	4,304575E-9	0,095215	-0,058145
196,000000	3,558020E-9	0,095703	-0,059455
197,000000	4,457972E-9	0,096191	-0,061386
198,000000	2,812125E-9	0,096680	-0,061799
199,000000	2,900934E-9	0,097168	-0,065608
200,000000	3,832963E-9	0,097656	-0,065368
201,000000	4,183837E-9	0,098145	-0,066247
202,000000	2,275221E-9	0,098633	-0,066935
203,000000	2,392028E-9	0,099121	-0,067940
204,000000	2,474212E-9	0,099609	-0,070822
205,000000	3,537771E-9	0,100098	-0,070367
206,000000	2,752966E-9	0,100586	-0,072203
207,000000	4,362364E-9	0,101074	-0,072837
208,000000	2,899960E-9	0,101562	-0,073160
209,000000	2,509264E-9	0,102051	-0,073477
210,000000	3,177445E-9	0,102539	-0,075396
211,000000	4,625479E-9	0,103027	-0,074427
212,000000	4,306765E-9	0,103516	-0,074481
213,000000	3,097024E-9	0,104004	-0,074272
214,000000	5,107739E-9	0,104492	-0,075055
215,000000	3,914665E-9	0,104980	-0,075253
216,000000	4,062587E-9	0,105469	-0,074607
217,000000	4,418744E-9	0,105957	-0,074876
218,000000	2,906254E-9	0,106445	-0,073674
219,000000	3,247652E-9	0,106934	-0,073847
220,000000	3,131821E-9	0,107422	-0,073907
221,000000	2,484398E-9	0,107910	-0,073411
222,000000	3,182103E-9	0,108398	-0,071826
223,000000	5,176717E-9	0,108887	-0,071025
224,000000	3,072897E-9	0,109375	-0,070744
225,000000	1,893736E-9	0,109863	-0,069716
226,000000	2,164302E-9	0,110352	-0,067934
227,000000	2,989438E-9	0,110840	-0,068005
228,000000	1,503848E-9	0,111328	-0,066427
229,000000	2,276768E-9	0,111816	-0,064567
230,000000	1,913987E-9	0,112305	-0,062720
231,000000	2,338858E-9	0,112793	-0,061117
232,000000	1,664184E-9	0,113281	-0,061033
233,000000	3,717185E-9	0,113770	-0,057505
234,000000	1,963399E-9	0,114258	-0,056878
235,000000	2,065200E-9	0,114746	-0,055646
236,000000	1,878759E-9	0,115234	-0,053786
237,000000	2,243942E-9	0,115723	-0,051042
238,000000	3,226306E-9	0,116211	-0,049212
239,000000	2,931987E-9	0,116699	-0,046934
240,000000	3,043882E-9	0,117187	-0,044931
241,000000	1,084234E-9	0,117676	-0,043179
242,000000	2,336063E-9	0,118164	-0,042060
243,000000	2,962361E-9	0,118652	-0,039459
244,000000	2,072744E-9	0,119141	-0,036703
245,000000	9,921879E-10	0,119629	-0,035166
246,000000	2,439876E-9	0,120117	-0,032332
247,000000	2,784273E-9	0,120605	-0,030107
248,000000	3,438393E-9	0,121094	-0,028900
249,000000	3,201784E-9	0,121582	-0,025820
250,000000	2,633341E-9	0,122070	-0,024666
251,000000	1,552941E-9	0,122559	-0,022334
252,000000	2,723315E-9	0,123047	-0,020134
253,000000	1,781784E-9	0,123535	-0,017831
254,000000	1,635417E-9	0,124023	-0,014549
255,000000	3,470988E-9	0,124512	-0,012725
256,000000	3,309369E-9	0,125000	-0,009825
257,000000	1,620893E-9	0,125488	-0,007583
258,000000	2,012608E-9	0,125977	-0,005645
259,000000	1,791673E-9	0,126465	-0,003756
260,000000	2,602306E-9	0,126953	-0,000539
261,000000	2,467581E-9	0,127441	0,001698
262,000000	2,032237E-9	0,127930	0,005190
263,000000	2,231422E-9	0,128418	0,006224
264,000000	2,468942E-9	0,128906	0,008897
265,000000	2,259604E-9	0,129395	0,011893
266,000000	1,791936E-9	0,129883	0,013776
267,000000	1,721418E-9	0,130371	0,017561
268,000000	2,100425E-9	0,130859	0,020569
269,000000	1,738994E-9	0,131348	0,020862
270,000000	2,464677E-9	0,131836	0,024019
271,000000	1,602752E-9	0,132324	0,026315
272,000000	2,811265E-9	0,132812	0,027158
273,000000	3,001580E-9	0,133301	0,030794
274,000000	2,176523E-9	0,133789	0,033239
275,000000	1,289254E-9	0,134277	0,035649
276,000000	2,547886E-9	0,134766	0,037610
277,000000	3,421628E-10	0,135254	0,039524
278,000000	2,055986E-9	0,135742	0,041928
279,000000	1,865326E-9	0,136230	0,043877
280,000000	2,834443E-9	0,136719	0,045814
281,000000	1,718458E-9	0,137207	0,047339
282,000000	2,534790E-9	0,137695	0,048128
283,000000	1,846675E-9	0,138184	0,050407
284,000000	1,317970E-9	0,138672	0,052176
285,000000	5,642173E-10	0,139160	0,053426
286,000000	9,926387E-10	0,139648	0,054096
287,000000	1,543771E-10	0,140137	0,056565
288,000000	2,471373E-9	0,140625	0,059161
289,000000	2,182391E-9	0,141113	0,059597
290,000000	1,937241E-9	0,141602	0,059747
291,000000	2,226565E-9	0,142090	0,061415
292,000000	1,490632E-9	0,142578	0,063119
293,000000	1,120006E-9	0,143066	0,064763
294,000000	2,586032E-9	0,143555	0,065947
295,000000	3,247112E-9	0,144043	0,067071
296,000000	1,862302E-9	0,144531	0,068100
297,000000	1,938169E-9	0,145020	0,069081
298,000000	1,497654E-9	0,145508	0,069667
299,000000	4,151030E-10	0,145996	0,070581
300,000000	1,317718E-9	0,146484	0,070510
301,000000	1,554366E-9	0,146973	0,070862
302,000000	2,466433E-9	0,147461	0,074558
303,000000	3,031427E-9	0,147949	0,072889
304,000000	1,333348E-9	0,148437	0,073984
305,000000	1,762006E-9	0,148926	0,074187
306,000000	2,490039E-9	0,149414	0,074683
307,000000	1,801265E-9	0,149902	0,075616
308,000000	4,972855E-10	0,150391	0,074875
309,000000	1,298275E-9	0,150879	0,075813
310,000000	2,235236E-9	0,151367	0,075939
311,000000	1,078537E-9	0,151855	0,075694
312,000000	1,884060E-9	0,152344	0,075126
313,000000	1,216626E-9	0,152832	0,074671
314,000000	8,663854E-10	0,153320	0,075054
315,000000	1,650083E-9	0,153809	0,073631
316,000000	1,463471E-9	0,154297	0,073350
317,000000	1,489135E-9	0,154785	0,073194
318,000000	8,870141E-10	0,155273	0,072806
319,000000	1,444909E-9	0,155762	0,071281
320,000000	1,043051E-9	0,156250	0,069523
321,000000	4,137659E-10	0,156738	0,068895
322,000000	2,085415E-9	0,157227	0,066683
323,000000	1,645052E-9	0,157715	0,067012
324,000000	1,338301E-9	0,158203	0,063322
325,000000	1,651060E-9	0,158691	0,063089
326,000000	1,395159E-9	0,159180	0,060721
327,000000	1,325954E-9	0,159668	0,059866
328,000000	9,742895E-10	0,160156	0,058156
329,000000	2,593592E-10	0,160645	0,056177
330,000000	2,078572E-9	0,161133	0,054102
331,000000	8,456284E-10	0,161621	0,051746
332,000000	3,052820E-9	0,162109	0,049282
333,000000	2,313184E-9	0,162598	0,047142
334,000000	2,379470E-9	0,163086	0,046825
335,000000	2,385424E-9	0,163574	0,042633
336,000000	9,791463E-10	0,164062	0,043171
337,000000	9,774352E-10	0,164551	0,040074
338,000000	9,150360E-10	0,165039	0,038125
339,000000	4,012128E-10	0,165527	0,034334
340,000000	1,589644E-9	0,166016	0,033849
341,000000	1,174529E-9	0,166504	0,031332
342,000000	5,518207E-10	0,166992	0,028468
343,000000	1,188525E-9	0,167480	0,027218
344,000000	9,149530E-10	0,167969	0,025221
345,000000	2,500795E-9	0,168457	0,021837
346,000000	9,208278E-10	0,168945	0,020700
347,000000	1,054656E-9	0,169434	0,017340
348,000000	1,068621E-9	0,169922	0,015660
349,000000	1,681245E-9	0,170410	0,013112
350,000000	5,016910E-10	0,170898	0,012168
351,000000	4,434905E-10	0,171387	0,009256
352,000000	6,721280E-10	0,171875	0,006087
353,000000	8,622784E-10	0,172363	0,003390
354,000000	1,105389E-9	0,172852	0,001680
355,000000	9,844399E-10	0,173340	-0,000957
356,000000	9,054795E-10	0,173828	-0,002434
357,000000	1,342053E-9	0,174316	-0,005645
358,000000	1,150249E-9	0,174805	-0,007905
359,000000	1,803392E-9	0,175293	-0,009885
360,000000	4,465267E-10	0,175781	-0,012450
361,000000	1,298723E-9	0,176270	-0,014531
362,000000	4,131221E-10	0,176758	-0,017180
363,000000	2,127058E-9	0,177246	-0,018920
364,000000	1,846097E-9	0,177734	-0,020881
365,000000	1,571707E-9	0,178223	-0,023159
366,000000	2,926774E-10	0,178711	-0,025563
367,000000	1,625635E-9	0,179199	-0,028116
368,000000	1,091572E-9	0,179687	-0,029426
369,000000	1,546481E-9	0,180176	-0,031638
370,000000	1,029479E-9	0,180664	-0,032523
371,000000	2,170632E-9	0,181152	-0,035764
372,000000	1,975032E-9	0,181641	-0,036972
373,000000	9,525520E-10	0,182129	-0,038072
374,000000	6,869763E-10	0,182617	-0,040799
375,000000	1,327359E-9	0,183105	-0,042945
376,000000	3,575035E-10	0,183594	-0,043771
377,000000	1,039423E-9	0,184082	-0,045415
378,000000	8,218482E-10	0,184570	-0,046515
379,000000	2,671114E-10	0,185059	-0,048769
380,000000	1,712254E-9	0,185547	-0,050485
381,000000	1,730171E-9	0,186035	-0,052387
382,000000	2,399689E-9	0,186523	-0,052596
383,000000	5,971572E-10	0,187012	-0,053744
384,000000	1,942075E-9	0,187500	-0,054581
385,000000	1,027166E-9	0,187988	-0,056011
386,000000	8,444613E-10	0,188477	-0,057894
387,000000	9,891339E-10	0,188965	-0,058845
388,000000	8,691166E-10	0,189453	-0,059090
389,000000	6,748441E-10	0,189941	-0,060794
390,000000	1,024704E-9	0,190430	-0,061619
391,000000	7,640971E-10	0,190918	-0,061386
392,000000	1,237473E-9	0,191406	-0,061972
393,000000	1,033429E-9	0,191895	-0,063335
394,000000	1,208448E-9	0,192383	-0,063551
395,000000	1,103243E-9	0,192871	-0,064585
396,000000	7,738843E-10	0,193359	-0,065464
397,000000	3,953130E-10	0,193848	-0,065757
398,000000	1,352583E-9	0,194336	-0,065871
399,000000	1,285486E-9	0,194824	-0,066104
400,000000	1,141002E-9	0,195312	-0,066206
401,000000	7,445433E-10	0,195801	-0,066756
402,000000	2,383982E-9	0,196289	-0,066893
403,000000	9,210666E-11	0,196777	-0,066851
404,000000	1,350792E-9	0,197266	-0,067162
405,000000	1,528367E-9	0,197754	-0,067019
406,000000	1,253533E-9	0,198242	-0,066493
407,000000	9,555835E-10	0,198730	-0,067431
408,000000	1,476670E-9	0,199219	-0,066612
409,000000	8,105747E-10	0,199707	-0,066373
410,000000	1,963476E-9	0,200195	-0,064956
411,000000	1,427085E-9	0,200684	-0,064328
412,000000	1,032781E-9	0,201172	-0,062803
413,000000	1,961018E-9	0,201660	-0,061571
414,000000	6,387604E-10	0,202148	-0,061930
415,000000	3,103550E-10	0,202637	-0,059365
416,000000	1,468498E-9	0,203125	-0,058576
417,000000	4,897204E-10	0,203613	-0,056495
418,000000	3,070496E-10	0,204102	-0,055096
419,000000	1,180852E-9	0,204590	-0,053918
420,000000	7,769056E-10	0,205078	-0,054109
421,000000	1,258730E-9	0,205566	-0,050611
422,000000	9,204197E-10	0,206055	-0,048793
423,000000	6,154547E-10	0,206543	-0,048064
424,000000	8,158077E-11	0,207031	-0,046174
425,000000	9,284698E-10	0,207520	-0,044853
426,000000	1,281809E-9	0,208008	-0,042533
427,000000	1,102536E-9	0,208496	-0,039974
428,000000	6,125816E-10	0,208984	-0,037946
429,000000	6,539122E-11	0,209473	-0,035919
430,000000	3,221999E-9	0,209961	-0,034646
431,000000	4,241659E-10	0,210449	-0,032140
432,000000	1,257440E-9	0,210937	-0,029228
433,000000	9,731544E-10	0,211426	-0,026436
434,000000	1,115080E-9	0,211914	-0,025497
435,000000	6,011650E-10	0,212402	-0,022812
436,000000	3,484968E-10	0,212891	-0,020002
437,000000	7,612400E-10	0,213379	-0,019775
438,000000	2,371274E-10	0,213867	-0,017108
439,000000	7,558044E-10	0,214355	-0,015505
440,000000	4,714188E-10	0,214844	-0,012420
441,000000	6,113628E-10	0,215332	-0,010662
442,000000	8,396022E-10	0,215820	-0,008689
443,000000	2,027436E-9	0,216309	-0,005902
444,000000	4,521978E-10	0,216797	-0,003499
445,000000	6,196776E-11	0,217285	-0,001824
446,000000	6,667898E-10	0,217773	0,000191
447,000000	1,385813E-9	0,218262	0,002852
448,000000	4,542329E-10	0,218750	0,004095
449,000000	3,325747E-10	0,219238	0,006678
450,000000	1,083770E-9	0,219727	0,009441
451,000000	3,842722E-10	0,220215	0,011325
452,000000	9,891870E-10	0,220703	0,012556
453,000000	4,790037E-10	0,221191	0,015086
454,000000	1,154374E-9	0,221680	0,018057
455,000000	1,987252E-9	0,222168	0,020581
456,000000	5,479221E-10	0,222656	0,022536
457,000000	2,574617E-9	0,223145	0,024886
458,000000	1,462349E-9	0,223633	0,026064
459,000000	1,731445E-9	0,224121	0,027601
460,000000	9,505466E-10	0,224609	0,030704
461,000000	1,832925E-9	0,225098	0,032839
462,000000	1,323811E-9	0,225586	0,034746
463,000000	1,098540E-9	0,226074	0,036456
464,000000	1,076621E-9	0,226562	0,038424
465,000000	1,128514E-9	0,227051	0,039339
466,000000	6,709626E-10	0,227539	0,040809
467,000000	8,172276E-10	0,228027	0,043560
468,000000	1,137002E-9	0,228516	0,045276
469,000000	4,757521E-10	0,229004	0,047441
470,000000	1,552074E-9	0,229492	0,048039
471,000000	6,487014E-10	0,229980	0,049258
472,000000	5,696905E-10	0,230469	0,051561
473,000000	1,161062E-9	0,230957	0,053337
474,000000	9,162506E-10	0,231445	0,054479
475,000000	8,237443E-10	0,231934	0,056111
476,000000	1,782187E-9	0,232422	0,056948
477,000000	6,023901E-10	0,232910	0,058431
478,000000	8,759693E-10	0,233398	0,059567
479,000000	8,983633E-10	0,233887	0,059693
480,000000	1,840462E-9	0,234375	0,061313
481,000000	5,406202E-10	0,234863	0,062234
482,000000	1,281441E-9	0,235352	0,062987
483,000000	1,118424E-9	0,235840	0,064028
484,000000	1,081808E-9	0,236328	0,063555
485,000000	1,037404E-9	0,236816	0,064835
486,000000	1,641069E-9	0,237305	0,065086
487,000000	3,744262E-10	0,237793	0,066252
488,000000	9,711490E-10	0,238281	0,065870
489,000000	5,314172E-10	0,238770	0,066485
490,000000	2,600734E-10	0,239258	0,066784
491,000000	1,114607E-9	0,239746	0,067932
492,000000	4,114953E-10	0,240234	0,067651
493,000000	6,857504E-10	0,240723	0,067992
494,000000	1,170892E-9	0,241211	0,067819
495,000000	8,034538E-10	0,241699	0,067628
496,000000	5,495180E-10	0,242187	0,067897
497,000000	3,664251E-10	0,242676	0,067030
498,000000	2,775016E-10	0,243164	0,067406
499,000000	4,468029E-10	0,243652	0,067077
500,000000	2,789965E-10	0,244141	0,067370
501,000000	8,581429E-10	0,244629	0,067275
502,000000	5,039006E-10	0,245117	0,066055
503,000000	9,188784E-10	0,245605	0,064656
504,000000	5,004292E-10	0,246094	0,064931
505,000000	7,383199E-10	0,246582	0,063472
506,000000	1,049235E-9	0,247070	0,063161
507,000000	9,335198E-10	0,247559	0,062647
508,000000	4,683942E-10	0,248047	0,061032
509,000000	4,273227E-10	0,248535	0,059454
510,000000	2,674594E-10	0,249023	0,058880
511,000000	8,632509E-10	0,249512	0,056524
512,000000	5,298744E-11	0,250000	0,055537
513,000000	5,470002E-10	0,250488	0,054807
514,000000	4,253663E-10	0,250977	0,052810
515,000000	2,983198E-10	0,251465	0,051321
516,000000	5,579453E-10	0,251953	0,049498
517,000000	2,864984E-10	0,252441	0,048284
518,000000	2,734125E-10	0,252930	0,045946
519,000000	9,798157E-10	0,253418	0,044822
520,000000	4,707005E-10	0,253906	0,043201
521,000000	1,154127E-9	0,254395	0,040361
522,000000	3,975882E-10	0,254883	0,039225
523,000000	2,799146E-10	0,255371	0,037108
524,000000	6,438361E-10	0,255859	0,034495
525,000000	8,644781E-10	0,256348	0,033072
526,000000	9,385231E-10	0,256836	0,031804
527,000000	4,510033E-10	0,257324	0,029120
528,000000	1,362950E-9	0,257812	0,027708
529,000000	7,860856E-10	0,258301	0,024719
530,000000	8,184660E-10	0,258789	0,022733
531,000000	2,630227E-9	0,259277	0,021986
532,000000	1,164864E-9	0,259766	0,018715
533,000000	5,496780E-10	0,260254	0,017436
534,000000	1,230134E-9	0,260742	0,014571
535,000000	1,117691E-9	0,261230	0,012251
536,000000	4,769726E-10	0,261719	0,011635
537,000000	5,140462E-10	0,262207	0,009513
538,000000	3,311132E-10	0,262695	0,006535
539,000000	7,130883E-10	0,263184	0,003976
540,000000	1,029421E-9	0,263672	0,002134
541,000000	4,287607E-10	0,264160	-0,000497
542,000000	4,651343E-10	0,264648	-0,003786
543,000000	2,815424E-10	0,265137	-0,005113
544,000000	5,112714E-10	0,265625	-0,006249
545,000000	1,425580E-9	0,266113	-0,008497
546,000000	5,027350E-10	0,266602	-0,011314
547,000000	3,859582E-10	0,267090	-0,011924
548,000000	5,061374E-10	0,267578	-0,014525
549,000000	4,413555E-10	0,268066	-0,017102
550,000000	4,415061E-10	0,268555	-0,018184
551,000000	6,767865E-10	0,269043	-0,021437
552,000000	1,077373E-9	0,269531	-0,022848
553,000000	5,161005E-10	0,270020	-0,024732
554,000000	1,601428E-9	0,270508	-0,026508
555,000000	5,632178E-10	0,270996	-0,029073
556,000000	3,321611E-10	0,271484	-0,029982
557,000000	6,837866E-10	0,271973	-0,032254
558,000000	1,195872E-9	0,272461	-0,034496
559,000000	3,702126E-10	0,272949	-0,035770
560,000000	9,370787E-10	0,273437	-0,037648
561,000000	1,610824E-10	0,273926	-0,039232
562,000000	5,973755E-10	0,274414	-0,040817
563,000000	9,790530E-10	0,274902	-0,041821
564,000000	3,797322E-10	0,275391	-0,044195
565,000000	1,264446E-10	0,275879	-0,045869
566,000000	1,198190E-9	0,276367	-0,045780
567,000000	3,874588E-11	0,276855	-0,047777
568,000000	4,438459E-10	0,277344	-0,050324
569,000000	6,989963E-12	0,277832	-0,050904
570,000000	2,213356E-10	0,278320	-0,052166
571,000000	9,145263E-10	0,278809	-0,052345
572,000000	7,763461E-10	0,279297	-0,053882
573,000000	6,669417E-10	0,279785	-0,054665
574,000000	2,668106E-10	0,280273	-0,054874
575,000000	4,817601E-10	0,280762	-0,055975
576,000000	2,367054E-10	0,281250	-0,056441
577,000000	6,506297E-11	0,281738	-0,058408
578,000000	3,233840E-10	0,282227	-0,058815
579,000000	6,047617E-10	0,282715	-0,058624
580,000000	1,185153E-9	0,283203	-0,059078
581,000000	9,176427E-10	0,283691	-0,059700
582,000000	3,412842E-10	0,284180	-0,060328
583,000000	1,015374E-10	0,284668	-0,061039
584,000000	1,427021E-10	0,285156	-0,060310
585,000000	1,423342E-9	0,285645	-0,059825
586,000000	1,175739E-9	0,286133	-0,059622
587,000000	6,385491E-10	0,286621	-0,059975
588,000000	4,962650E-10	0,287109	-0,060011
589,000000	5,693861E-10	0,287598	-0,059556
590,000000	1,338126E-10	0,288086	-0,059712
591,000000	8,027119E-10	0,288574	-0,058253
592,000000	3,775369E-10	0,289062	-0,058325
593,000000	4,389413E-10	0,289551	-0,058426
594,000000	6,758002E-10	0,290039	-0,057733
595,000000	1,163197E-9	0,290527	-0,057613
596,000000	5,565977E-10	0,291016	-0,057015
597,000000	9,569427E-10	0,291504	-0,056310
598,000000	5,979863E-10	0,291992	-0,054552
599,000000	5,594487E-10	0,292480	-0,054271
600,000000	5,068013E-10	0,292969	-0,054438
601,000000	4,265325E-10	0,293457	-0,052578
602,000000	1,159352E-9	0,293945	-0,052644
603,000000	2,359988E-11	0,294434	-0,050946
604,000000	1,045130E-9	0,294922	-0,050037
605,000000	4,473653E-11	0,295410	-0,048536
606,000000	6,900033E-10	0,295898	-0,047693
607,000000	1,391151E-10	0,296387	-0,045523
608,000000	2,083395E-10	0,296875	-0,044135
609,000000	1,857643E-9	0,297363	-0,043519
610,000000	9,144072E-10	0,297852	-0,041953
611,000000	9,776397E-10	0,298340	-0,039352
612,000000	1,684793E-10	0,298828	-0,037707
613,000000	4,712615E-10	0,299316	-0,036643
614,000000	1,866316E-9	0,299805	-0,035190
615,000000	5,094394E-10	0,300293	-0,033540
616,000000	6,242169E-10	0,300781	-0,030795
617,000000	7,869850E-10	0,301270	-0,029324
618,000000	3,685848E-10	0,301758	-0,027183
619,000000	2,636640E-10	0,302246	-0,026657
620,000000	1,242519E-9	0,302734	-0,024158
621,000000	4,485819E-10	0,303223	-0,022029
622,000000	5,834739E-10	0,303711	-0,020361
623,000000	8,982028E-10	0,304199	-0,018166
624,000000	8,053743E-10	0,304687	-0,016390
625,000000	9,462808E-10	0,305176	-0,014650
626,000000	1,615732E-9	0,305664	-0,012121
627,000000	2,042140E-9	0,306152	-0,010166
628,000000	8,435594E-10	0,306641	-0,008599
629,000000	1,026242E-10	0,307129	-0,005986
630,000000	4,176208E-10	0,307617	-0,004270
631,000000	6,540395E-10	0,308105	-0,001430
632,000000	1,040205E-9	0,308594	-0,000102
633,000000	1,208785E-10	0,309082	0,001751
634,000000	6,661522E-10	0,309570	0,004466
635,000000	1,951048E-10	0,310059	0,006643
636,000000	1,271381E-11	0,310547	0,008783
637,000000	4,337265E-10	0,311035	0,010894
638,000000	9,764226E-10	0,311523	0,013083
639,000000	1,400647E-9	0,312012	0,015714
640,000000	1,510747E-9	0,312500	0,017059
641,000000	6,183556E-10	0,312988	0,019223
642,000000	5,286423E-10	0,313477	0,020748
643,000000	3,947553E-10	0,313965	0,024366
644,000000	3,725823E-10	0,314453	0,025921
645,000000	6,901261E-10	0,314941	0,028049
646,000000	6,864140E-10	0,315430	0,028540
647,000000	6,832276E-10	0,315918	0,030100
648,000000	3,274793E-10	0,316406	0,032761
649,000000	5,113550E-10	0,316895	0,035260
650,000000	2,642342E-10	0,317383	0,036432
651,000000	9,110469E-11	0,317871	0,037539
652,000000	3,971234E-10	0,318359	0,038926
653,000000	8,950140E-10	0,318848	0,040594
654,000000	4,940387E-10	0,319336	0,042496
655,000000	4,603841E-10	0,319824	0,043841
656,000000	7,275774E-10	0,320312	0,045061
657,000000	8,860317E-10	0,320801	0,046048
658,000000	4,790724E-10	0,321289	0,047453
659,000000	1,827595E-10	0,321777	0,047632
660,000000	1,081801E-9	0,322266	0,048176
661,000000	3,206548E-10	0,322754	0,052045
662,000000	9,403253E-10	0,323242	0,051985
663,000000	4,973256E-10	0,323730	0,054150
664,000000	3,751870E-10	0,324219	0,053755
665,000000	5,885499E-10	0,324707	0,054425
666,000000	4,422032E-11	0,325195	0,055196
667,000000	1,046061E-9	0,325684	0,055555
668,000000	3,620658E-10	0,326172	0,055914
669,000000	2,801811E-10	0,326660	0,058168
670,000000	2,808213E-10	0,327148	0,058969
671,000000	1,539408E-10	0,327637	0,059872
672,000000	6,253693E-10	0,328125	0,059316
673,000000	5,682207E-10	0,328613	0,060159
674,000000	7,599194E-11	0,329102	0,060739
675,000000	3,050794E-10	0,329590	0,061792
676,000000	2,816812E-10	0,330078	0,062473
677,000000	7,213293E-10	0,330566	0,062413
678,000000	8,759289E-10	0,331055	0,062629
679,000000	1,041844E-9	0,331543	0,061373
680,000000	3,585919E-10	0,332031	0,063280
681,000000	1,011721E-9	0,332520	0,062569
682,000000	5,594800E-10	0,333008	0,062085
683,000000	8,257458E-10	0,333496	0,062228
684,000000	6,027824E-10	0,333984	0,061851
685,000000	1,343146E-10	0,334473	0,062294
686,000000	7,869162E-10	0,334961	0,062563
687,000000	8,065489E-10	0,335449	0,060416
688,000000	1,586425E-10	0,335937	0,060452
689,000000	2,521216E-10	0,336426	0,059776
690,000000	1,151976E-10	0,336914	0,058509
691,000000	2,802720E-11	0,337402	0,058317
692,000000	8,137253E-10	0,337891	0,058282
693,000000	1,157868E-9	0,338379	0,054455
694,000000	2,198350E-10	0,338867	0,053869
695,000000	3,214679E-10	0,339355	0,055172
696,000000	1,661366E-10	0,339844	0,052816
697,000000	4,005207E-10	0,340332	0,051130
698,000000	6,818617E-10	0,340820	0,049695
699,000000	2,831735E-10	0,341309	0,049253
700,000000	8,948502E-10	0,341797	0,046980
701,000000	9,796889E-10	0,342285	0,046508
702,000000	6,235779E-10	0,342773	0,044493
703,000000	2,345448E-10	0,343262	0,043859
704,000000	8,133499E-10	0,343750	0,041419
705,000000	9,296673E-10	0,344238	0,040528
706,000000	1,496601E-9	0,344727	0,038681
707,000000	8,358619E-10	0,345215	0,037216
708,000000	7,794592E-10	0,345703	0,034914
709,000000	3,258628E-10	0,346191	0,033999
710,000000	6,912379E-10	0,346680	0,031960
711,000000	4,552249E-10	0,347168	0,030680
712,000000	1,493611E-10	0,347656	0,028821
713,000000	1,104742E-9	0,348145	0,026016
714,000000	3,280236E-10	0,348633	0,025299
715,000000	9,104722E-10	0,349121	0,022249
716,000000	6,978876E-10	0,349609	0,021173
717,000000	5,463525E-10	0,350098	0,018548
718,000000	5,159016E-10	0,350586	0,016413
719,000000	9,035002E-10	0,351074	0,015205
720,000000	3,024875E-10	0,351562	0,012963
721,000000	2,128028E-10	0,352051	0,011205
722,000000	3,291750E-10	0,352539	0,008735
723,000000	1,246939E-10	0,353027	0,006547
724,000000	3,605204E-10	0,353516	0,005064
725,000000	9,096141E-10	0,354004	0,003958
726,000000	2,875540E-10	0,354492	0,001638
727,000000	8,264350E-10	0,354980	-0,000312
728,000000	2,535939E-10	0,355469	-0,002046
729,000000	7,713554E-11	0,355957	-0,004677
730,000000	2,558916E-10	0,356445	-0,005872
731,000000	1,356217E-11	0,356934	-0,008354
732,000000	9,345940E-10	0,357422	-0,009562
733,000000	3,887221E-10	0,357910	-0,011708
734,000000	6,559709E-10	0,358398	-0,013795
735,000000	2,658196E-10	0,358887	-0,015105
736,000000	6,821770E-10	0,359375	-0,017885
737,000000	1,401437E-10	0,359863	-0,019392
738,000000	2,032820E-10	0,360352	-0,021252
739,000000	6,274648E-10	0,360840	-0,023117
740,000000	5,302601E-12	0,361328	-0,025599
741,000000	2,435103E-10	0,361816	-0,026926
742,000000	3,557814E-10	0,362305	-0,029617
743,000000	9,015574E-10	0,362793	-0,030801
744,000000	6,206864E-10	0,363281	-0,031034
745,000000	5,076902E-10	0,363770	-0,033013
746,000000	2,369547E-10	0,364258	-0,035280
747,000000	3,015875E-10	0,364746	-0,036954
748,000000	1,881888E-10	0,365234	-0,037414
749,000000	2,754104E-10	0,365723	-0,039866
750,000000	1,181718E-11	0,366211	-0,040817
751,000000	2,600025E-10	0,366699	-0,041732
752,000000	8,320948E-10	0,367187	-0,042222
753,000000	2,573287E-11	0,367676	-0,044189
754,000000	1,272635E-10	0,368164	-0,045098
755,000000	7,577948E-10	0,368652	-0,045780
756,000000	4,262156E-11	0,369141	-0,047161
757,000000	9,112194E-10	0,369629	-0,047107
758,000000	3,385488E-10	0,370117	-0,048817
759,000000	1,330750E-9	0,370605	-0,049224
760,000000	6,291104E-10	0,371094	-0,050025
761,000000	1,378138E-9	0,371582	-0,051502
762,000000	2,978520E-11	0,372070	-0,050773
763,000000	3,532417E-10	0,372559	-0,052226
764,000000	5,834941E-10	0,373047	-0,053134
765,000000	1,065953E-9	0,373535	-0,053427
766,000000	1,096364E-9	0,374023	-0,054282
767,000000	1,252186E-9	0,374512	-0,052614
768,000000	1,364184E-9	0,375000	-0,054253
769,000000	1,053730E-9	0,375488	-0,053954
770,000000	2,852625E-10	0,375977	-0,055221
771,000000	3,714343E-10	0,376465	-0,054892
772,000000	7,688956E-10	0,376953	-0,055867
773,000000	5,922150E-10	0,377441	-0,054815
774,000000	3,332742E-10	0,377930	-0,054952
775,000000	3,395670E-10	0,378418	-0,054528
776,000000	5,952335E-10	0,378906	-0,055963
777,000000	9,193099E-10	0,379395	-0,054306
778,000000	7,603099E-10	0,379883	-0,054294
779,000000	3,595675E-10	0,380371	-0,055795
780,000000	1,404577E-9	0,380859	-0,054211
781,000000	1,279600E-9	0,381348	-0,052829
782,000000	3,591531E-10	0,381836	-0,053380
783,000000	7,067507E-10	0,382324	-0,053936
784,000000	7,945720E-10	0,382812	-0,051562
785,000000	6,423547E-10	0,383301	-0,051604
786,000000	4,749438E-10	0,383789	-0,050127
787,000000	5,041377E-10	0,384277	-0,049038
788,000000	6,672274E-10	0,384766	-0,047908
789,000000	7,915053E-10	0,385254	-0,046186
790,000000	7,263213E-10	0,385742	-0,046150
791,000000	1,281116E-9	0,386230	-0,043962
792,000000	1,262569E-9	0,386719	-0,044751
793,000000	6,076256E-10	0,387207	-0,040021
794,000000	6,787699E-10	0,387695	-0,040231
795,000000	1,004860E-9	0,388184	-0,038867
796,000000	5,070144E-11	0,388672	-0,037414
797,000000	1,014898E-9	0,389160	-0,034484
798,000000	2,618664E-10	0,389648	-0,033767
799,000000	4,050797E-10	0,390137	-0,031309
800,000000	1,884802E-10	0,390625	-0,030101
801,000000	6,883810E-10	0,391113	-0,029228
802,000000	4,981927E-10	0,391602	-0,026508
803,000000	1,020831E-9	0,392090	-0,025174
804,000000	1,044835E-9	0,392578	-0,022765
805,000000	4,761361E-10	0,393066	-0,021419
806,000000	3,714966E-10	0,393555	-0,019930
807,000000	1,117487E-9	0,394043	-0,018848
808,000000	7,687254E-10	0,394531	-0,016378
809,000000	2,243895E-10	0,395020	-0,015129
810,000000	6,864249E-10	0,395508	-0,012504
811,000000	1,722747E-10	0,395996	-0,010435
812,000000	3,831244E-10	0,396484	-0,008647
813,000000	7,370469E-10	0,396973	-0,005974
814,000000	3,240734E-10	0,397461	-0,005185
815,000000	1,285975E-10	0,397949	-0,002787
816,000000	3,746404E-11	0,398437	-0,000652
817,000000	3,217653E-10	0,398926	0,001249
818,000000	5,472362E-10	0,399414	0,002935
819,000000	3,919176E-10	0,399902	0,004329
820,000000	4,050503E-10	0,400391	0,006702
821,000000	2,544109E-10	0,400879	0,009327
822,000000	1,339483E-10	0,401367	0,009800
823,000000	5,840094E-10	0,401855	0,012784
824,000000	3,399867E-10	0,402344	0,014320
825,000000	1,040737E-9	0,402832	0,015349
826,000000	3,594962E-10	0,403320	0,017669
827,000000	8,184093E-11	0,403809	0,018907
828,000000	4,486751E-10	0,404297	0,020772
829,000000	3,549570E-10	0,404785	0,022464
830,000000	4,724120E-10	0,405273	0,024013
831,000000	2,940241E-10	0,405762	0,025412
832,000000	1,399827E-10	0,406250	0,026800
833,000000	4,423681E-11	0,406738	0,027960
834,000000	6,729719E-10	0,407227	0,029712
835,000000	1,903833E-10	0,407715	0,031224
836,000000	3,847296E-10	0,408203	0,033413
837,000000	6,923627E-10	0,408691	0,033652
838,000000	7,566387E-10	0,409180	0,035147
839,000000	6,818799E-10	0,409668	0,036444
840,000000	2,649468E-10	0,410156	0,038495
841,000000	2,703697E-10	0,410645	0,038352
842,000000	3,218339E-10	0,411133	0,040439
843,000000	5,652894E-10	0,411621	0,042304
844,000000	1,257896E-10	0,412109	0,043488
845,000000	3,346140E-10	0,412598	0,044481
846,000000	6,073369E-10	0,413086	0,045210
847,000000	4,229104E-10	0,413574	0,046275
848,000000	6,156188E-11	0,414062	0,047889
849,000000	4,141805E-10	0,414551	0,048511
850,000000	6,434791E-10	0,415039	0,050448
851,000000	4,245430E-10	0,415527	0,050514
852,000000	3,685561E-10	0,416016	0,051537
853,000000	3,451519E-10	0,416504	0,052505
854,000000	4,298182E-10	0,416992	0,053020
855,000000	6,783479E-11	0,417480	0,053970
856,000000	2,044933E-10	0,417969	0,054819
857,000000	6,214692E-10	0,418457	0,055651
858,000000	4,838622E-10	0,418945	0,055866
859,000000	4,084364E-11	0,419434	0,056817
860,000000	5,638642E-10	0,419922	0,057456
861,000000	4,746644E-10	0,420410	0,056165
862,000000	7,976354E-10	0,420898	0,057044
863,000000	4,956129E-10	0,421387	0,058258
864,000000	7,151059E-10	0,421875	0,056619
865,000000	8,366766E-10	0,422363	0,057845
866,000000	1,111156E-9	0,422852	0,057696
867,000000	1,494571E-10	0,423340	0,057468
868,000000	2,122880E-10	0,423828	0,057289
869,000000	1,748362E-10	0,424316	0,057929
870,000000	2,056961E-10	0,424805	0,056392
871,000000	6,648113E-10	0,425293	0,056464
872,000000	3,610851E-10	0,425781	0,056685
873,000000	2,315375E-10	0,426270	0,056189
874,000000	1,002028E-10	0,426758	0,056440
875,000000	4,209809E-10	0,427246	0,055471
876,000000	2,813544E-10	0,427734	0,053928
877,000000	2,525610E-10	0,428223	0,053743
878,000000	5,541930E-10	0,428711	0,052428
879,000000	5,222233E-10	0,429199	0,052469
880,000000	5,699753E-10	0,429687	0,050556
881,000000	2,991750E-10	0,430176	0,049438
882,000000	2,185347E-10	0,430664	0,048732
883,000000	9,401573E-11	0,431152	0,048003
884,000000	1,697542E-9	0,431641	0,045503
885,000000	2,223783E-10	0,432129	0,044666
886,000000	1,771152E-10	0,432617	0,043333
887,000000	1,153032E-10	0,433105	0,041844
888,000000	2,871461E-10	0,433594	0,040612
889,000000	1,120366E-9	0,434082	0,038944
890,000000	3,322172E-11	0,434570	0,038095
891,000000	7,767744E-11	0,435059	0,034830
892,000000	1,692361E-10	0,435547	0,036139
893,000000	3,068840E-11	0,436035	0,032689
894,000000	1,071289E-9	0,436523	0,029658
895,000000	5,510747E-10	0,437012	0,029735
896,000000	5,750990E-10	0,437500	0,027487
897,000000	9,836627E-10	0,437988	0,026554
898,000000	6,704453E-10	0,438477	0,024115
899,000000	2,405577E-10	0,438965	0,022428
900,000000	3,660692E-10	0,439453	0,021382
901,000000	1,276822E-9	0,439941	0,018578
902,000000	6,852462E-10	0,440430	0,018745
903,000000	3,309669E-10	0,440918	0,015385
904,000000	1,832462E-10	0,441406	0,013782
905,000000	1,002059E-9	0,441895	0,012467
906,000000	4,915138E-10	0,442383	0,011438
907,000000	4,133791E-10	0,442871	0,007695
908,000000	2,116212E-10	0,443359	0,007761
909,000000	3,529621E-10	0,443848	0,004956
910,000000	1,009869E-11	0,444336	0,003790
911,000000	1,719932E-10	0,444824	0,000884
912,000000	5,532606E-10	0,445312	-0,000611
913,000000	8,680636E-10	0,445801	-0,001639
914,000000	2,460396E-10	0,446289	-0,003295
915,000000	6,048427E-10	0,446777	-0,004928
916,000000	1,484537E-10	0,447266	-0,008354
917,000000	7,829931E-10	0,447754	-0,010220
918,000000	2,967107E-11	0,448242	-0,011248
919,000000	6,708301E-10	0,448730	-0,011595
920,000000	4,424053E-10	0,449219	-0,014202
921,000000	5,366419E-10	0,449707	-0,016701
922,000000	9,704082E-10	0,450195	-0,018615
923,000000	9,617814E-10	0,450684	-0,019470
924,000000	8,952249E-10	0,451172	-0,021150
925,000000	8,578254E-10	0,451660	-0,022932
926,000000	4,689140E-10	0,452148	-0,024857
927,000000	9,715253E-10	0,452637	-0,026269
928,000000	2,473907E-10	0,453125	-0,027787
929,000000	2,306441E-10	0,453613	-0,029557
930,000000	3,705624E-10	0,454102	-0,030496
931,000000	9,380340E-11	0,454590	-0,032087
932,000000	2,101540E-10	0,455078	-0,032116
933,000000	4,534844E-10	0,455566	-0,034173
934,000000	5,971970E-10	0,456055	-0,035172
935,000000	1,024123E-9	0,456543	-0,036727
936,000000	7,376106E-11	0,457031	-0,037480
937,000000	1,343756E-9	0,457520	-0,038467
938,000000	4,838385E-10	0,458008	-0,039166
939,000000	7,935113E-10	0,458496	-0,039722
940,000000	5,859791E-10	0,458984	-0,041564
941,000000	2,527846E-10	0,459473	-0,042479
942,000000	2,605105E-10	0,459961	-0,042664
943,000000	9,235163E-10	0,460449	-0,043962
944,000000	7,015877E-10	0,460937	-0,045146
945,000000	2,996343E-10	0,461426	-0,045182
946,000000	2,883819E-11	0,461914	-0,046952
947,000000	8,522692E-12	0,462402	-0,046742
948,000000	1,579358E-10	0,462891	-0,047872
949,000000	7,329032E-10	0,463379	-0,047729
950,000000	3,440023E-10	0,463867	-0,048375
951,000000	4,796049E-10	0,464355	-0,049511
952,000000	7,265365E-10	0,464844	-0,049373
953,000000	1,506773E-10	0,465332	-0,049499
954,000000	2,922270E-10	0,465820	-0,050653
955,000000	2,972370E-10	0,466309	-0,050067
956,000000	4,999052E-10	0,466797	-0,049917
957,000000	3,450594E-10	0,467285	-0,050653
958,000000	3,899570E-10	0,467773	-0,050880
959,000000	4,385019E-10	0,468262	-0,051353
960,000000	2,839541E-10	0,468750	-0,050737
961,000000	9,461432E-10	0,469238	-0,050898
962,000000	4,434316E-11	0,469727	-0,049373
963,000000	9,406418E-10	0,470215	-0,050133
964,000000	3,329137E-10	0,470703	-0,050288
965,000000	3,225351E-10	0,471191	-0,050115
966,000000	6,648256E-10	0,471680	-0,049314
967,000000	2,326283E-10	0,472168	-0,048435
968,000000	3,198390E-10	0,472656	-0,047520
969,000000	3,880396E-10	0,473145	-0,047221
970,000000	6,552019E-10	0,473633	-0,046838
971,000000	2,225127E-10	0,474121	-0,046611
972,000000	1,511507E-9	0,474609	-0,045445
973,000000	1,060772E-9	0,475098	-0,043926
974,000000	5,927440E-10	0,475586	-0,042987
975,000000	9,382427E-10	0,476074	-0,042425
976,000000	3,615466E-10	0,476562	-0,040673
977,000000	5,509175E-10	0,477051	-0,039836
978,000000	7,133033E-11	0,477539	-0,038431
979,000000	1,114687E-10	0,478027	-0,037952
980,000000	2,902123E-10	0,478516	-0,036153
981,000000	1,896686E-10	0,479004	-0,035489
982,000000	2,696099E-10	0,479492	-0,033982
983,000000	1,017005E-10	0,479980	-0,031321
984,000000	1,579388E-10	0,480469	-0,029342
985,000000	5,592085E-10	0,480957	-0,027548
986,000000	4,633512E-10	0,481445	-0,028415
987,000000	6,862996E-10	0,481934	-0,025976
988,000000	1,491018E-10	0,482422	-0,024307
989,000000	1,298680E-10	0,482910	-0,021688
990,000000	4,612901E-10	0,483398	-0,019847
991,000000	5,272709E-10	0,483887	-0,017963
992,000000	4,706705E-10	0,484375	-0,016671
993,000000	1,240803E-10	0,484863	-0,014890
994,000000	3,700886E-11	0,485352	-0,013419
995,000000	3,214846E-10	0,485840	-0,011164
996,000000	4,140105E-10	0,486328	-0,009520
997,000000	4,809067E-10	0,486816	-0,008617
998,000000	5,990035E-10	0,487305	-0,005687
999,000000	2,672202E-10	0,487793	-0,006171
1000,000000	6,873366E-10	0,488281	-0,004264
1001,000000	2,672202E-10	0,488770	-0,002374
1002,000000	5,990035E-10	0,489258	-0,000222
1003,000000	4,809067E-10	0,489746	0,001602
1004,000000	4,140105E-10	0,490234	0,002989
1005,000000	3,214846E-10	0,490723	0,004681
1006,000000	3,700886E-11	0,491211	0,006822
1007,000000	1,240803E-10	0,491699	0,007223
1008,000000	4,706705E-10	0,492187	0,010559
1009,000000	5,272709E-10	0,492676	0,011492
1010,000000	4,612901E-10	0,493164	0,012383
1011,000000	1,298680E-10	0,493652	0,014643
1012,000000	1,491018E-10	0,494141	0,015929
1013,000000	6,862996E-10	0,494629	0,018297
1014,000000	4,633512E-10	0,495117	0,018739
1015,000000	5,592085E-10	0,495605	0,020940
1016,000000	1,579388E-10	0,496094	0,021753
1017,000000	1,017005E-10	0,496582	0,023260
1018,000000	2,696099E-10	0,497070	0,025305
1019,000000	1,896686E-10	0,497559	0,028007
1020,000000	2,902123E-10	0,498047	0,028803
1021,000000	1,114687E-10	0,498535	0,030262
1022,000000	7,133033E-11	0,499023	0,031529
1023,000000	5,509175E-10	0,499512	0,033754
1024,000000	3,615466E-10	0,500000	0,035589
1025,000000	9,382427E-10	0,500488	0,034435
1026,000000	5,927440E-10	0,500977	0,035978
1027,000000	1,060772E-9	0,501465	0,038818
1028,000000	1,511507E-9	0,501953	0,040056
1029,000000	2,225127E-10	0,502441	0,041252
1030,000000	6,552019E-10	0,502930	0,042065
1031,000000	3,880396E-10	0,503418	0,043991
1032,000000	3,198390E-10	0,503906	0,044905
1033,000000	2,326283E-10	0,504395	0,045426
1034,000000	6,648256E-10	0,504883	0,046526
1035,000000	3,225351E-10	0,505371	0,047722
1036,000000	3,329137E-10	0,505859	0,046807
1037,000000	9,406418E-10	0,506348	0,048708
1038,000000	4,434316E-11	0,506836	0,047632
1039,000000	9,461432E-10	0,507324	0,049007
1040,000000	2,839541E-10	0,507812	0,049498
1041,000000	4,385019E-10	0,508301	0,049964
1042,000000	3,899570E-10	0,508789	0,049904
1043,000000	3,450594E-10	0,509277	0,050263
1044,000000	4,999052E-10	0,509766	0,051507
1045,000000	2,972370E-10	0,510254	0,051919
1046,000000	2,922270E-10	0,510742	0,051226
1047,000000	1,506773E-10	0,511230	0,051088
1048,000000	7,265365E-10	0,511719	0,052786
1049,000000	4,796049E-10	0,512207	0,051106
1050,000000	3,440023E-10	0,512695	0,051907
1051,000000	7,329032E-10	0,513184	0,051226
1052,000000	1,579358E-10	0,513672	0,052039
1053,000000	8,522692E-12	0,514160	0,052852
1054,000000	2,883819E-11	0,514648	0,051501
1055,000000	2,996343E-10	0,515137	0,052284
1056,000000	7,015877E-10	0,515625	0,051740
1057,000000	9,235163E-10	0,516113	0,050741
1058,000000	2,605105E-10	0,516602	0,050227
1059,000000	2,527846E-10	0,517090	0,050347
1060,000000	5,859791E-10	0,517578	0,049456
1061,000000	7,935113E-10	0,518066	0,049540
1062,000000	4,838385E-10	0,518555	0,049001
1063,000000	1,343756E-9	0,519043	0,047955
1064,000000	7,376106E-11	0,519531	0,046873
1065,000000	1,024123E-9	0,520020	0,045719
1066,000000	5,971970E-10	0,520508	0,045127
1067,000000	4,534844E-10	0,520996	0,044547
1068,000000	2,101540E-10	0,521484	0,043249
1069,000000	9,380340E-11	0,521973	0,042394
1070,000000	3,705624E-10	0,522461	0,040660
1071,000000	2,306441E-10	0,522949	0,040989
1072,000000	2,473907E-10	0,523437	0,038914
1073,000000	9,715253E-10	0,523926	0,037951
1074,000000	4,689140E-10	0,524414	0,035571
1075,000000	8,578254E-10	0,524902	0,034842
1076,000000	8,952249E-10	0,525391	0,033341
1077,000000	9,617814E-10	0,525879	0,031996
1078,000000	9,704082E-10	0,526367	0,031978
1079,000000	5,366419E-10	0,526855	0,029311
1080,000000	4,424053E-10	0,527344	0,027529
1081,000000	6,708301E-10	0,527832	0,026997
1082,000000	2,967107E-11	0,528320	0,025048
1083,000000	7,829931E-10	0,528809	0,024073
1084,000000	1,484537E-10	0,529297	0,022076
1085,000000	6,048427E-10	0,529785	0,021203
1086,000000	2,460396E-10	0,530273	0,018482
1087,000000	8,680636E-10	0,530762	0,018117
1088,000000	5,532606E-10	0,531250	0,015426
1089,000000	1,719932E-10	0,531738	0,013962
1090,000000	1,009869E-11	0,532227	0,011923
1091,000000	3,529621E-10	0,532715	0,010320
1092,000000	2,116212E-10	0,533203	0,008759
1093,000000	4,133791E-10	0,533691	0,007067
1094,000000	4,915138E-10	0,534180	0,004622
1095,000000	1,002059E-9	0,534668	0,003330
1096,000000	1,832462E-10	0,535156	0,001781
1097,000000	3,309669E-10	0,535645	0,000675
1098,000000	6,852462E-10	0,536133	-0,001364
1099,000000	1,276822E-9	0,536621	-0,003708
1100,000000	3,660692E-10	0,537109	-0,004605
1101,000000	2,405577E-10	0,537598	-0,006369
1102,000000	6,704453E-10	0,538086	-0,007266
1103,000000	9,836627E-10	0,538574	-0,010698
1104,000000	5,750990E-10	0,539062	-0,011726
1105,000000	5,510747E-10	0,539551	-0,013048
1106,000000	1,071289E-9	0,540039	-0,013466
1107,000000	3,068840E-11	0,540527	-0,015189
1108,000000	1,692361E-10	0,541016	-0,017760
1109,000000	7,767744E-11	0,541504	-0,018370
1110,000000	3,322172E-11	0,541992	-0,020468
1111,000000	1,120366E-9	0,542480	-0,021754
1112,000000	2,871461E-10	0,542969	-0,023638
1113,000000	1,153032E-10	0,543457	-0,024409
1114,000000	1,771152E-10	0,543945	-0,025928
1115,000000	2,223783E-10	0,544434	-0,027225
1116,000000	1,697542E-9	0,544922	-0,028672
1117,000000	9,401573E-11	0,545410	-0,029826
1118,000000	2,185347E-10	0,545898	-0,030454
1119,000000	2,991750E-10	0,546387	-0,031202
1120,000000	5,699753E-10	0,546875	-0,033498
1121,000000	5,222233E-10	0,547363	-0,034233
1122,000000	5,541930E-10	0,547852	-0,035166
1123,000000	2,525610E-10	0,548340	-0,036571
1124,000000	2,813544E-10	0,548828	-0,036344
1125,000000	4,209809E-10	0,549316	-0,038814
1126,000000	1,002028E-10	0,549805	-0,039848
1127,000000	2,315375E-10	0,550293	-0,040051
1128,000000	3,610851E-10	0,550781	-0,041253
1129,000000	6,648113E-10	0,551270	-0,042144
1130,000000	2,056961E-10	0,551758	-0,042754
1131,000000	1,748362E-10	0,552246	-0,043525
1132,000000	2,122880E-10	0,552734	-0,043567
1133,000000	1,494571E-10	0,553223	-0,042898
1134,000000	1,111156E-9	0,553711	-0,045505
1135,000000	8,366766E-10	0,554199	-0,044464
1136,000000	7,151059E-10	0,554687	-0,045552
1137,000000	4,956129E-10	0,555176	-0,045738
1138,000000	7,976354E-10	0,555664	-0,045816
1139,000000	4,746644E-10	0,556152	-0,045750
1140,000000	5,638642E-10	0,556641	-0,046031
1141,000000	4,084364E-11	0,557129	-0,046766
1142,000000	4,838622E-10	0,557617	-0,046862
1143,000000	6,214692E-10	0,558105	-0,046982
1144,000000	2,044933E-10	0,558594	-0,046593
1145,000000	6,783479E-11	0,559082	-0,046671
1146,000000	4,298182E-10	0,559570	-0,046186
1147,000000	3,451519E-10	0,560059	-0,045941
1148,000000	3,685561E-10	0,560547	-0,044984
1149,000000	4,245430E-10	0,561035	-0,045493
1150,000000	6,434791E-10	0,561523	-0,045038
1151,000000	4,141805E-10	0,562012	-0,042748
1152,000000	6,156188E-11	0,562500	-0,044578
1153,000000	4,229104E-10	0,562988	-0,044028
1154,000000	6,073369E-10	0,563477	-0,042395
1155,000000	3,346140E-10	0,563965	-0,042419
1156,000000	1,257896E-10	0,564453	-0,040990
1157,000000	5,652894E-10	0,564941	-0,040015
1158,000000	3,218339E-10	0,565430	-0,039842
1159,000000	2,703697E-10	0,565918	-0,040123
1160,000000	2,649468E-10	0,566406	-0,037731
1161,000000	6,818799E-10	0,566895	-0,037498
1162,000000	7,566387E-10	0,567383	-0,035925
1163,000000	6,923627E-10	0,567871	-0,035262
1164,000000	3,847296E-10	0,568359	-0,033623
1165,000000	1,903833E-10	0,568848	-0,032517
1166,000000	6,729719E-10	0,569336	-0,030885
1167,000000	4,423681E-11	0,569824	-0,030275
1168,000000	1,399827E-10	0,570312	-0,028337
1169,000000	2,940241E-10	0,570801	-0,028337
1170,000000	4,724120E-10	0,571289	-0,026496
1171,000000	3,549570E-10	0,571777	-0,023691
1172,000000	4,486751E-10	0,572266	-0,023225
1173,000000	8,184093E-11	0,572754	-0,022047
1174,000000	3,594962E-10	0,573242	-0,020773
1175,000000	1,040737E-9	0,573730	-0,018657
1176,000000	3,399867E-10	0,574219	-0,017066
1177,000000	5,840094E-10	0,574707	-0,015996
1178,000000	1,339483E-10	0,575195	-0,013741
1179,000000	2,544109E-10	0,575684	-0,012641
1180,000000	4,050503E-10	0,576172	-0,011463
1181,000000	3,919176E-10	0,576660	-0,009616
1182,000000	5,472362E-10	0,577148	-0,008737
1183,000000	3,217653E-10	0,577637	-0,006883
1184,000000	3,746404E-11	0,578125	-0,004940
1185,000000	1,285975E-10	0,578613	-0,003337
1186,000000	3,240734E-10	0,579102	-0,001627
1187,000000	7,370469E-10	0,579590	-0,000814
1188,000000	3,831244E-10	0,580078	0,000526
1189,000000	1,722747E-10	0,580566	0,001961
1190,000000	6,864249E-10	0,581055	0,002971
1191,000000	2,243895E-10	0,581543	0,005202
1192,000000	7,687254E-10	0,582031	0,007779
1193,000000	1,117487E-9	0,582520	0,009459
1194,000000	3,714966E-10	0,583008	0,010159
1195,000000	4,761361E-10	0,583496	0,012192
1196,000000	1,044835E-9	0,583984	0,013830
1197,000000	1,020831E-9	0,584473	0,015343
1198,000000	4,981927E-10	0,584961	0,016551
1199,000000	6,883810E-10	0,585449	0,018452
1200,000000	1,884802E-10	0,585937	0,018901
1201,000000	4,050797E-10	0,586426	0,020569
1202,000000	2,618664E-10	0,586914	0,021932
1203,000000	1,014898E-9	0,587402	0,023929
1204,000000	5,070144E-11	0,587891	0,025831
1205,000000	1,004860E-9	0,588379	0,026375
1206,000000	6,787699E-10	0,588867	0,028235
1207,000000	6,076256E-10	0,589355	0,029676
1208,000000	1,262569E-9	0,589844	0,031440
1209,000000	1,281116E-9	0,590332	0,031416
1210,000000	7,263213E-10	0,590820	0,033532
1211,000000	7,915053E-10	0,591309	0,035416
1212,000000	6,672274E-10	0,591797	0,035763
1213,000000	5,041377E-10	0,592285	0,036833
1214,000000	4,749438E-10	0,592773	0,037748
1215,000000	6,423547E-10	0,593262	0,038167
1216,000000	7,945720E-10	0,593750	0,039847
1217,000000	7,067507E-10	0,594238	0,041216
1218,000000	3,591531E-10	0,594727	0,041031
1219,000000	1,279600E-9	0,595215	0,040965
1220,000000	1,404577E-9	0,595703	0,042257
1221,000000	3,595675E-10	0,596191	0,043656
1222,000000	7,603099E-10	0,596680	0,044128
1223,000000	9,193099E-10	0,597168	0,044636
1224,000000	5,952335E-10	0,597656	0,045719
1225,000000	3,395670E-10	0,598145	0,045802
1226,000000	3,332742E-10	0,598633	0,044870
1227,000000	5,922150E-10	0,599121	0,046897
1228,000000	7,688956E-10	0,599609	0,047650
1229,000000	3,714343E-10	0,600098	0,047776
1230,000000	2,852625E-10	0,600586	0,048242
1231,000000	1,053730E-9	0,601074	0,048433
1232,000000	1,364184E-9	0,601562	0,048864
1233,000000	1,252186E-9	0,602051	0,048236
1234,000000	1,096364E-9	0,602539	0,049480
1235,000000	1,065953E-9	0,603027	0,048762
1236,000000	5,834941E-10	0,603516	0,049103
1237,000000	3,532417E-10	0,604004	0,049205
1238,000000	2,978520E-11	0,604492	0,048535
1239,000000	1,378138E-9	0,604980	0,048517
1240,000000	6,291104E-10	0,605469	0,048499
1241,000000	1,330750E-9	0,605957	0,048720
1242,000000	3,385488E-10	0,606445	0,047578
1243,000000	9,112194E-10	0,606934	0,046568
1244,000000	4,262156E-11	0,607422	0,046059
1245,000000	7,577948E-10	0,607910	0,045856
1246,000000	1,272635E-10	0,608398	0,046107
1247,000000	2,573287E-11	0,608887	0,045133
1248,000000	8,320948E-10	0,609375	0,044218
1249,000000	2,600025E-10	0,609863	0,043064
1250,000000	1,181718E-11	0,610352	0,043704
1251,000000	2,754104E-10	0,610840	0,042579
1252,000000	1,881888E-10	0,611328	0,041138
1253,000000	3,015875E-10	0,611816	0,040343
1254,000000	2,369547E-10	0,612305	0,039255
1255,000000	5,076902E-10	0,612793	0,037915
1256,000000	6,206864E-10	0,613281	0,036582
1257,000000	9,015574E-10	0,613770	0,035075
1258,000000	3,557814E-10	0,614258	0,034985
1259,000000	2,435103E-10	0,614746	0,033550
1260,000000	5,302601E-12	0,615234	0,031858
1261,000000	6,274648E-10	0,615723	0,031129
1262,000000	2,032820E-10	0,616211	0,029789
1263,000000	1,401437E-10	0,616699	0,028492
1264,000000	6,821770E-10	0,617187	0,027212
1265,000000	2,658196E-10	0,617676	0,025741
1266,000000	6,559709E-10	0,618164	0,023720
1267,000000	3,887221E-10	0,618652	0,023307
1268,000000	9,345940E-10	0,619141	0,021436
1269,000000	1,356217E-11	0,619629	0,018637
1270,000000	2,558916E-10	0,620117	0,018966
1271,000000	7,713554E-11	0,620605	0,017178
1272,000000	2,535939E-10	0,621094	0,015163
1273,000000	8,264350E-10	0,621582	0,014936
1274,000000	2,875540E-10	0,622070	0,012485
1275,000000	9,096141E-10	0,622559	0,009967
1276,000000	3,605204E-10	0,623047	0,009788
1277,000000	1,246939E-10	0,623535	0,009028
1278,000000	3,291750E-10	0,624023	0,007163
1279,000000	2,128028E-10	0,624512	0,005477
1280,000000	3,024875E-10	0,625000	0,003306
1281,000000	9,035002E-10	0,625488	0,002009
1282,000000	5,159016E-10	0,625977	0,000717
1283,000000	5,463525E-10	0,626465	-0,000407
1284,000000	6,978876E-10	0,626953	-0,002829
1285,000000	9,104722E-10	0,627441	-0,003666
1286,000000	3,280236E-10	0,627930	-0,004503
1287,000000	1,104742E-9	0,628418	-0,006458
1288,000000	1,493611E-10	0,628906	-0,008234
1289,000000	4,552249E-10	0,629395	-0,009317
1290,000000	6,912379E-10	0,629883	-0,011475
1291,000000	3,258628E-10	0,630371	-0,011858
1292,000000	7,794592E-10	0,630859	-0,012629
1293,000000	8,358619E-10	0,631348	-0,015852
1294,000000	1,496601E-9	0,631836	-0,016241
1295,000000	9,296673E-10	0,632324	-0,017903
1296,000000	8,133499E-10	0,632812	-0,019811
1297,000000	2,345448E-10	0,633301	-0,020337
1298,000000	6,235779E-10	0,633789	-0,022214
1299,000000	9,796889E-10	0,634277	-0,022968
1300,000000	8,948502E-10	0,634766	-0,024534
1301,000000	2,831735E-10	0,635254	-0,025378
1302,000000	6,818617E-10	0,635742	-0,025940
1303,000000	4,005207E-10	0,636230	-0,027889
1304,000000	1,661366E-10	0,636719	-0,028427
1305,000000	3,214679E-10	0,637207	-0,030066
1306,000000	2,198350E-10	0,637695	-0,030586
1307,000000	1,157868E-9	0,638184	-0,031758
1308,000000	8,137253E-10	0,638672	-0,033288
1309,000000	2,802720E-11	0,639160	-0,034078
1310,000000	1,151976E-10	0,639648	-0,034682
1311,000000	2,521216E-10	0,640137	-0,035752
1312,000000	1,586425E-10	0,640625	-0,036840
1313,000000	8,065489E-10	0,641113	-0,037253
1314,000000	7,869162E-10	0,641602	-0,037821
1315,000000	1,343146E-10	0,642090	-0,038772
1316,000000	6,027824E-10	0,642578	-0,038957
1317,000000	8,257458E-10	0,643066	-0,039358
1318,000000	5,594800E-10	0,643555	-0,040637
1319,000000	1,011721E-9	0,644043	-0,041893
1320,000000	3,585919E-10	0,644531	-0,041217
1321,000000	1,041844E-9	0,645020	-0,041684
1322,000000	8,759289E-10	0,645508	-0,041863
1323,000000	7,213293E-10	0,645996	-0,042013
1324,000000	2,816812E-10	0,646484	-0,042670
1325,000000	3,050794E-10	0,646973	-0,042688
1326,000000	7,599194E-11	0,647461	-0,042874
1327,000000	5,682207E-10	0,647949	-0,043495
1328,000000	6,253693E-10	0,648437	-0,043663
1329,000000	1,539408E-10	0,648926	-0,043824
1330,000000	2,808213E-10	0,649414	-0,042778
1331,000000	2,801811E-10	0,649902	-0,042820
1332,000000	3,620658E-10	0,650391	-0,042909
1333,000000	1,046061E-9	0,650879	-0,043782
1334,000000	4,422032E-11	0,651367	-0,042306
1335,000000	5,885499E-10	0,651855	-0,041349
1336,000000	3,751870E-10	0,652344	-0,041522
1337,000000	4,973256E-10	0,652832	-0,041157
1338,000000	9,403253E-10	0,653320	-0,040386
1339,000000	3,206548E-10	0,653809	-0,040087
1340,000000	1,081801E-9	0,654297	-0,039495
1341,000000	1,827595E-10	0,654785	-0,039154
1342,000000	4,790724E-10	0,655273	-0,037695
1343,000000	8,860317E-10	0,655762	-0,036356
1344,000000	7,275774E-10	0,656250	-0,035250
1345,000000	4,603841E-10	0,656738	-0,033001
1346,000000	4,940387E-10	0,657227	-0,033683
1347,000000	8,950140E-10	0,657715	-0,031835
1348,000000	3,971234E-10	0,658203	-0,032206
1349,000000	9,110469E-11	0,658691	-0,031632
1350,000000	2,642342E-10	0,659180	-0,029270
1351,000000	5,113550E-10	0,659668	-0,028929
1352,000000	3,274793E-10	0,660156	-0,026759
1353,000000	6,832276E-10	0,660645	-0,026251
1354,000000	6,864140E-10	0,661133	-0,024893
1355,000000	6,901261E-10	0,661621	-0,022830
1356,000000	3,725823E-10	0,662109	-0,021389
1357,000000	3,947553E-10	0,662598	-0,021300
1358,000000	5,286423E-10	0,663086	-0,020612
1359,000000	6,183556E-10	0,663574	-0,018453
1360,000000	1,510747E-9	0,664062	-0,015667
1361,000000	1,400647E-9	0,664551	-0,015834
1362,000000	9,764226E-10	0,665039	-0,014411
1363,000000	4,337265E-10	0,665527	-0,012809
1364,000000	1,271381E-11	0,666016	-0,012001
1365,000000	1,951048E-10	0,666504	-0,010704
1366,000000	6,661522E-10	0,666992	-0,008892
1367,000000	1,208785E-10	0,667480	-0,008079
1368,000000	1,040205E-9	0,667969	-0,006692
1369,000000	6,540395E-10	0,668457	-0,005257
1370,000000	4,176208E-10	0,668945	-0,002847
1371,000000	1,026242E-10	0,669434	-0,002147
1372,000000	8,435594E-10	0,669922	-0,000784
1373,000000	2,042140E-9	0,670410	0,001064
1374,000000	1,615732E-9	0,670898	0,001859
1375,000000	9,462808E-10	0,671387	0,002720
1376,000000	8,053743E-10	0,671875	0,004915
1377,000000	8,982028E-10	0,672363	0,006750
1378,000000	5,834739E-10	0,672852	0,008347
1379,000000	4,485819E-10	0,673340	0,009585
1380,000000	1,242519E-9	0,673828	0,011307
1381,000000	2,636640E-10	0,674316	0,011875
1382,000000	3,685848E-10	0,674805	0,013896
1383,000000	7,869850E-10	0,675293	0,014081
1384,000000	6,242169E-10	0,675781	0,016096
1385,000000	5,094394E-10	0,676270	0,016736
1386,000000	1,866316E-9	0,676758	0,018721
1387,000000	4,712615E-10	0,677246	0,020856
1388,000000	1,684793E-10	0,677734	0,021944
1389,000000	9,776397E-10	0,678223	0,024169
1390,000000	9,144072E-10	0,678711	0,024438
1391,000000	1,857643E-9	0,679199	0,024509
1392,000000	2,083395E-10	0,679687	0,026064
1393,000000	1,391151E-10	0,680176	0,026746
1394,000000	6,900033E-10	0,680664	0,027744
1395,000000	4,473653E-11	0,681152	0,029861
1396,000000	1,045130E-9	0,681641	0,030620
1397,000000	2,359988E-11	0,682129	0,031284
1398,000000	1,159352E-9	0,682617	0,032504
1399,000000	4,265325E-10	0,683105	0,033126
1400,000000	5,068013E-10	0,683594	0,034866
1401,000000	5,594487E-10	0,684082	0,035870
1402,000000	5,979863E-10	0,684570	0,036283
1403,000000	9,569427E-10	0,685059	0,036869
1404,000000	5,565977E-10	0,685547	0,038071
1405,000000	1,163197E-9	0,686035	0,039177
1406,000000	6,758002E-10	0,686523	0,038914
1407,000000	4,389413E-10	0,687012	0,041180
1408,000000	3,775369E-10	0,687500	0,041019
1409,000000	8,027119E-10	0,687988	0,041545
1410,000000	1,338126E-10	0,688477	0,042029
1411,000000	5,693861E-10	0,688965	0,043692
1412,000000	4,962650E-10	0,689453	0,043034
1413,000000	6,385491E-10	0,689941	0,042878
1414,000000	1,175739E-9	0,690430	0,043387
1415,000000	1,423342E-9	0,690918	0,044296
1416,000000	1,427021E-10	0,691406	0,044080
1417,000000	1,015374E-10	0,691895	0,044678
1418,000000	3,412842E-10	0,692383	0,044266
1419,000000	9,176427E-10	0,692871	0,044523
1420,000000	1,185153E-9	0,693359	0,044822
1421,000000	6,047617E-10	0,693848	0,044654
1422,000000	3,233840E-10	0,694336	0,045228
1423,000000	6,506297E-11	0,694824	0,043985
1424,000000	2,367054E-10	0,695312	0,043704
1425,000000	4,817601E-10	0,695801	0,045246
1426,000000	2,668106E-10	0,696289	0,043417
1427,000000	6,669417E-10	0,696777	0,043817
1428,000000	7,763461E-10	0,697266	0,042860
1429,000000	9,145263E-10	0,697754	0,041993
1430,000000	2,213356E-10	0,698242	0,042107
1431,000000	6,989963E-12	0,698730	0,041784
1432,000000	4,438459E-10	0,699219	0,041712
1433,000000	3,874588E-11	0,699707	0,041061
1434,000000	1,198190E-9	0,700195	0,040540
1435,000000	1,264446E-10	0,700684	0,040642
1436,000000	3,797322E-10	0,701172	0,039763
1437,000000	9,790530E-10	0,701660	0,038352
1438,000000	5,973755E-10	0,702148	0,037963
1439,000000	1,610824E-10	0,702637	0,036062
1440,000000	9,370787E-10	0,703125	0,036139
1441,000000	3,702126E-10	0,703613	0,034908
1442,000000	1,195872E-9	0,704102	0,033748
1443,000000	6,837866E-10	0,704590	0,031834
1444,000000	3,321611E-10	0,705078	0,031368
1445,000000	5,632178E-10	0,705566	0,029867
1446,000000	1,601428E-9	0,706055	0,029287
1447,000000	5,161005E-10	0,706543	0,027380
1448,000000	1,077373E-9	0,707031	0,027445
1449,000000	6,767865E-10	0,707520	0,025669
1450,000000	4,415061E-10	0,708008	0,023702
1451,000000	4,413555E-10	0,708496	0,023864
1452,000000	5,061374E-10	0,708984	0,021466
1453,000000	3,859582E-10	0,709473	0,020778
1454,000000	5,027350E-10	0,709961	0,018745
1455,000000	1,425580E-9	0,710449	0,017346
1456,000000	5,112714E-10	0,710937	0,015708
1457,000000	2,815424E-10	0,711426	0,013399
1458,000000	4,651343E-10	0,711914	0,012628
1459,000000	4,287607E-10	0,712402	0,011121
1460,000000	1,029421E-9	0,712891	0,011331
1461,000000	7,130883E-10	0,713379	0,008694
1462,000000	3,311132E-10	0,713867	0,007833
1463,000000	5,140462E-10	0,714355	0,006457
1464,000000	4,769726E-10	0,714844	0,003677
1465,000000	1,117691E-9	0,715332	0,003749
1466,000000	1,230134E-9	0,715820	0,002696
1467,000000	5,496780E-10	0,716309	0,000131
1468,000000	1,164864E-9	0,716797	0,000274
1469,000000	2,630227E-9	0,717285	-0,001812
1470,000000	8,184660E-10	0,717773	-0,003558
1471,000000	7,860856E-10	0,718262	-0,004360
1472,000000	1,362950E-9	0,718750	-0,007080
1473,000000	4,510033E-10	0,719238	-0,007864
1474,000000	9,385231E-10	0,719727	-0,009024
1475,000000	8,644781E-10	0,720215	-0,010853
1476,000000	6,438361E-10	0,720703	-0,010770
1477,000000	2,799146E-10	0,721191	-0,012558
1478,000000	3,975882E-10	0,721680	-0,013975
1479,000000	1,154127E-9	0,722168	-0,014668
1480,000000	4,707005E-10	0,722656	-0,016803
1481,000000	9,798157E-10	0,723145	-0,017455
1482,000000	2,734125E-10	0,723633	-0,019338
1483,000000	2,864984E-10	0,724121	-0,020104
1484,000000	5,579453E-10	0,724609	-0,021772
1485,000000	2,983198E-10	0,725098	-0,024002
1486,000000	4,253663E-10	0,725586	-0,022782
1487,000000	5,470002E-10	0,726074	-0,024756
1488,000000	5,298744E-11	0,726562	-0,025527
1489,000000	8,632509E-10	0,727051	-0,026053
1490,000000	2,674594E-10	0,727539	-0,028212
1491,000000	4,273227E-10	0,728027	-0,027512
1492,000000	4,683942E-10	0,728516	-0,029366
1493,000000	9,335198E-10	0,729004	-0,029228
1494,000000	1,049235E-9	0,729492	-0,031333
1495,000000	7,383199E-10	0,729980	-0,031196
1496,000000	5,004292E-10	0,730469	-0,033235
1497,000000	9,188784E-10	0,730957	-0,032069
1498,000000	5,039006E-10	0,731445	-0,033862
1499,000000	8,581429E-10	0,731934	-0,034048
1500,000000	2,789965E-10	0,732422	-0,035399
1501,000000	4,468029E-10	0,732910	-0,035405
1502,000000	2,775016E-10	0,733398	-0,036153
1503,000000	3,664251E-10	0,733887	-0,037181
1504,000000	5,495180E-10	0,734375	-0,036200
1505,000000	8,034538E-10	0,734863	-0,036733
1506,000000	1,170892E-9	0,735352	-0,037378
1507,000000	6,857504E-10	0,735840	-0,038245
1508,000000	4,114953E-10	0,736328	-0,038467
1509,000000	1,114607E-9	0,736816	-0,038473
1510,000000	2,600734E-10	0,737305	-0,037624
1511,000000	5,314172E-10	0,737793	-0,038754
1512,000000	9,711490E-10	0,738281	-0,039041
1513,000000	3,744262E-10	0,738770	-0,039089
1514,000000	1,641069E-9	0,739258	-0,037564
1515,000000	1,037404E-9	0,739746	-0,038640
1516,000000	1,081808E-9	0,740234	-0,039441
1517,000000	1,118424E-9	0,740723	-0,038592
1518,000000	1,281441E-9	0,741211	-0,040021
1519,000000	5,406202E-10	0,741699	-0,038413
1520,000000	1,840462E-9	0,742187	-0,036834
1521,000000	8,983633E-10	0,742676	-0,037970
1522,000000	8,759693E-10	0,743164	-0,036589
1523,000000	6,023901E-10	0,743652	-0,036667
1524,000000	1,782187E-9	0,744141	-0,035704
1525,000000	8,237443E-10	0,744629	-0,035818
1526,000000	9,162506E-10	0,745117	-0,034060
1527,000000	1,161062E-9	0,745605	-0,034771
1528,000000	5,696905E-10	0,746094	-0,033139
1529,000000	6,487014E-10	0,746582	-0,032888
1530,000000	1,552074E-9	0,747070	-0,031094
1531,000000	4,757521E-10	0,747559	-0,032356
1532,000000	1,137002E-9	0,748047	-0,031626
1533,000000	8,172276E-10	0,748535	-0,028822
1534,000000	6,709626E-10	0,749023	-0,030215
1535,000000	1,128514E-9	0,749512	-0,027082
1536,000000	1,076621E-9	0,750000	-0,025760
1537,000000	1,098540E-9	0,750488	-0,025109
1538,000000	1,323811E-9	0,750977	-0,024385
1539,000000	1,832925E-9	0,751465	-0,023070
1540,000000	9,505466E-10	0,751953	-0,022549
1541,000000	1,731445E-9	0,752441	-0,021264
1542,000000	1,462349E-9	0,752930	-0,019165
1543,000000	2,574617E-9	0,753418	-0,017497
1544,000000	5,479221E-10	0,753906	-0,017144
1545,000000	1,987252E-9	0,754395	-0,015966
1546,000000	1,154374E-9	0,754883	-0,014668
1547,000000	4,790037E-10	0,755371	-0,014046
1548,000000	9,891870E-10	0,755859	-0,012181
1549,000000	3,842722E-10	0,756348	-0,011362
1550,000000	1,083770E-9	0,756836	-0,010638
1551,000000	3,325747E-10	0,757324	-0,007732
1552,000000	4,542329E-10	0,757812	-0,006871
1553,000000	1,385813E-9	0,758301	-0,005532
1554,000000	6,667898E-10	0,758789	-0,004934
1555,000000	6,196776E-11	0,759277	-0,003014
1556,000000	4,521978E-10	0,759766	-0,001860
1557,000000	2,027436E-9	0,760254	-0,000228
1558,000000	8,396022E-10	0,760742	0,001692
1559,000000	6,113628E-10	0,761230	0,001967
1560,000000	4,714188E-10	0,761719	0,003581
1561,000000	7,558044E-10	0,762207	0,005243
1562,000000	2,371274E-10	0,762695	0,005985
1563,000000	7,612400E-10	0,763184	0,008030
1564,000000	3,484968E-10	0,763672	0,007438
1565,000000	6,011650E-10	0,764160	0,010565
1566,000000	1,115080E-9	0,764648	0,010410
1567,000000	9,731544E-10	0,765137	0,012514
1568,000000	1,257440E-9	0,765625	0,014464
1569,000000	4,241659E-10	0,766113	0,015564
1570,000000	3,221999E-9	0,766602	0,015612
1571,000000	6,539122E-11	0,767090	0,017896
1572,000000	6,125816E-10	0,767578	0,018763
1573,000000	1,102536E-9	0,768066	0,020198
1574,000000	1,281809E-9	0,768555	0,021436
1575,000000	9,284698E-10	0,769043	0,022620
1576,000000	8,158077E-11	0,769531	0,024892
1577,000000	6,154547E-10	0,770020	0,025257
1578,000000	9,204197E-10	0,770508	0,026214
1579,000000	1,258730E-9	0,770996	0,026973
1580,000000	7,769056E-10	0,771484	0,027780
1581,000000	1,180852E-9	0,771973	0,029335
1582,000000	3,070496E-10	0,772461	0,029323
1583,000000	4,897204E-10	0,772949	0,030854
1584,000000	1,468498E-9	0,773437	0,030704
1585,000000	3,103550E-10	0,773926	0,032360
1586,000000	6,387604E-10	0,774414	0,034477
1587,000000	1,961018E-9	0,774902	0,033843
1588,000000	1,032781E-9	0,775391	0,035260
1589,000000	1,427085E-9	0,775879	0,035637
1590,000000	1,963476E-9	0,776367	0,035446
1591,000000	8,105747E-10	0,776855	0,036809
1592,000000	1,476670E-9	0,777344	0,037413
1593,000000	9,555835E-10	0,777832	0,037557
1594,000000	1,253533E-9	0,778320	0,038448
1595,000000	1,528367E-9	0,778809	0,039404
1596,000000	1,350792E-9	0,779297	0,038848
1597,000000	9,210666E-11	0,779785	0,039291
1598,000000	2,383982E-9	0,780273	0,039865
1599,000000	7,445433E-10	0,780762	0,040905
1600,000000	1,141002E-9	0,781250	0,040678
1601,000000	1,285486E-9	0,781738	0,039703
1602,000000	1,352583E-9	0,782227	0,040176
1603,000000	3,953130E-10	0,782715	0,041509
1604,000000	7,738843E-10	0,783203	0,040253
1605,000000	1,103243E-9	0,783691	0,041162
1606,000000	1,208448E-9	0,784180	0,040570
1607,000000	1,033429E-9	0,784668	0,040869
1608,000000	1,237473E-9	0,785156	0,040666
1609,000000	7,640971E-10	0,785645	0,040684
1610,000000	1,024704E-9	0,786133	0,040367
1611,000000	6,748441E-10	0,786621	0,040223
1612,000000	8,691166E-10	0,787109	0,039374
1613,000000	9,891339E-10	0,787598	0,039093
1614,000000	8,444613E-10	0,788086	0,038699
1615,000000	1,027166E-9	0,788574	0,038872
1616,000000	1,942075E-9	0,789062	0,037018
1617,000000	5,971572E-10	0,789551	0,036456
1618,000000	2,399689E-9	0,790039	0,037826
1619,000000	1,730171E-9	0,790527	0,036803
1620,000000	1,712254E-9	0,791016	0,036636
1621,000000	2,671114E-10	0,791504	0,034938
1622,000000	8,218482E-10	0,791992	0,034680
1623,000000	1,039423E-9	0,792480	0,033024
1624,000000	3,575035E-10	0,792969	0,032175
1625,000000	1,327359E-9	0,793457	0,031697
1626,000000	6,869763E-10	0,793945	0,032079
1627,000000	9,525520E-10	0,794434	0,030555
1628,000000	1,975032E-9	0,794922	0,030208
1629,000000	2,170632E-9	0,795410	0,028282
1630,000000	1,029479E-9	0,795898	0,028199
1631,000000	1,546481E-9	0,796387	0,025777
1632,000000	1,091572E-9	0,796875	0,025915
1633,000000	1,625635E-9	0,797363	0,024079
1634,000000	2,926774E-10	0,797852	0,021813
1635,000000	1,571707E-9	0,798340	0,022399
1636,000000	1,846097E-9	0,798828	0,020706
1637,000000	2,127058E-9	0,799316	0,020485
1638,000000	4,131221E-10	0,799805	0,018590
1639,000000	1,298723E-9	0,800293	0,017699
1640,000000	4,465267E-10	0,800781	0,015989
1641,000000	1,803392E-9	0,801270	0,015181
1642,000000	1,150249E-9	0,801758	0,013591
1643,000000	1,342053E-9	0,802246	0,012616
1644,000000	9,054795E-10	0,802734	0,011671
1645,000000	9,844399E-10	0,803223	0,010081
1646,000000	1,105389E-9	0,803711	0,008048
1647,000000	8,622784E-10	0,804199	0,007103
1648,000000	6,721280E-10	0,804687	0,006421
1649,000000	4,434905E-10	0,805176	0,003569
1650,000000	5,016910E-10	0,805664	0,003019
1651,000000	1,681245E-9	0,806152	0,001943
1652,000000	1,068621E-9	0,806641	0,000526
1653,000000	1,054656E-9	0,807129	-0,000407
1654,000000	9,208278E-10	0,807617	-0,001723
1655,000000	2,500795E-9	0,808105	-0,003164
1656,000000	9,149530E-10	0,808594	-0,005083
1657,000000	1,188525E-9	0,809082	-0,005526
1658,000000	5,518207E-10	0,809570	-0,006488
1659,000000	1,174529E-9	0,810059	-0,008085
1660,000000	1,589644E-9	0,810547	-0,009347
1661,000000	4,012128E-10	0,811035	-0,010249
1662,000000	9,150360E-10	0,811523	-0,010584
1663,000000	9,774352E-10	0,812012	-0,012157
1664,000000	9,791463E-10	0,812500	-0,013281
1665,000000	2,385424E-9	0,812988	-0,015129
1666,000000	2,379470E-9	0,813477	-0,016701
1667,000000	2,313184E-9	0,813965	-0,017060
1668,000000	3,052820E-9	0,814453	-0,017497
1669,000000	8,456284E-10	0,814941	-0,019667
1670,000000	2,078572E-9	0,815430	-0,020116
1671,000000	2,593592E-10	0,815918	-0,021700
1672,000000	9,742895E-10	0,816406	-0,023099
1673,000000	1,325954E-9	0,816895	-0,022663
1674,000000	1,395159E-9	0,817383	-0,023374
1675,000000	1,651060E-9	0,817871	-0,025390
1676,000000	1,338301E-9	0,818359	-0,025132
1677,000000	1,645052E-9	0,818848	-0,026992
1678,000000	2,085415E-9	0,819336	-0,027548
1679,000000	4,137659E-10	0,819824	-0,027949
1680,000000	1,043051E-9	0,820312	-0,028618
1681,000000	1,444909E-9	0,820801	-0,029844
1682,000000	8,870141E-10	0,821289	-0,029982
1683,000000	1,489135E-9	0,821777	-0,031513
1684,000000	1,463471E-9	0,822266	-0,031357
1685,000000	1,650083E-9	0,822754	-0,032003
1686,000000	8,663854E-10	0,823242	-0,032774
1687,000000	1,216626E-9	0,823730	-0,032816
1688,000000	1,884060E-9	0,824219	-0,033791
1689,000000	1,078537E-9	0,824707	-0,033922
1690,000000	2,235236E-9	0,825195	-0,034807
1691,000000	1,298275E-9	0,825684	-0,035292
1692,000000	4,972855E-10	0,826172	-0,035028
1693,000000	1,801265E-9	0,826660	-0,034592
1694,000000	2,490039E-9	0,827148	-0,035686
1695,000000	1,762006E-9	0,827637	-0,035148
1696,000000	1,333348E-9	0,828125	-0,035244
1697,000000	3,031427E-9	0,828613	-0,035375
1698,000000	2,466433E-9	0,829102	-0,034933
1699,000000	1,554366E-9	0,829590	-0,035178
1700,000000	1,317718E-9	0,830078	-0,036194
1701,000000	4,151030E-10	0,830566	-0,035017
1702,000000	1,497654E-9	0,831055	-0,033874
1703,000000	1,938169E-9	0,831543	-0,035106
1704,000000	1,862302E-9	0,832031	-0,034981
1705,000000	3,247112E-9	0,832520	-0,033868
1706,000000	2,586032E-9	0,833008	-0,033868
1707,000000	1,120006E-9	0,833496	-0,033001
1708,000000	1,490632E-9	0,833984	-0,032063
1709,000000	2,226565E-9	0,834473	-0,032511
1710,000000	1,937241E-9	0,834961	-0,031465
1711,000000	2,182391E-9	0,835449	-0,030281
1712,000000	2,471373E-9	0,835937	-0,029653
1713,000000	1,543771E-10	0,836426	-0,029695
1714,000000	9,926387E-10	0,836914	-0,029019
1715,000000	5,642173E-10	0,837402	-0,027913
1716,000000	1,317970E-9	0,837891	-0,027494
1717,000000	1,846675E-9	0,838379	-0,027136
1718,000000	2,534790E-9	0,838867	-0,026765
1719,000000	1,718458E-9	0,839355	-0,025138
1720,000000	2,834443E-9	0,839844	-0,024289
1721,000000	1,865326E-9	0,840332	-0,023386
1722,000000	2,055986E-9	0,840820	-0,022627
1723,000000	3,421628E-10	0,841309	-0,021365
1724,000000	2,547886E-9	0,841797	-0,021174
1725,000000	1,289254E-9	0,842285	-0,020648
1726,000000	2,176523E-9	0,842773	-0,017676
1727,000000	3,001580E-9	0,843262	-0,016671
1728,000000	2,811265E-9	0,843750	-0,016002
1729,000000	1,602752E-9	0,844238	-0,014770
1730,000000	2,464677E-9	0,844727	-0,013138
1731,000000	1,738994E-9	0,845215	-0,012372
1732,000000	2,100425E-9	0,845703	-0,010871
1733,000000	1,721418E-9	0,846191	-0,009364
1734,000000	1,791936E-9	0,846680	-0,009161
1735,000000	2,259604E-9	0,847168	-0,008408
1736,000000	2,468942E-9	0,847656	-0,006028
1737,000000	2,231422E-9	0,848145	-0,005645
1738,000000	2,032237E-9	0,848633	-0,004760
1739,000000	2,467581E-9	0,849121	-0,002416
1740,000000	2,602306E-9	0,849609	-0,001071
1741,000000	1,791673E-9	0,850098	-0,001089
1742,000000	2,012608E-9	0,850586	0,000418
1743,000000	1,620893E-9	0,851074	0,002164
1744,000000	3,309369E-9	0,851562	0,001620
1745,000000	3,470988E-9	0,852051	0,003964
1746,000000	1,635417E-9	0,852539	0,005495
1747,000000	1,781784E-9	0,853027	0,005680
1748,000000	2,723315E-9	0,853516	0,007408
1749,000000	1,552941E-9	0,854004	0,007874
1750,000000	2,633341E-9	0,854492	0,009375
1751,000000	3,201784E-9	0,854980	0,010954
1752,000000	3,438393E-9	0,855469	0,011187
1753,000000	2,784273E-9	0,855957	0,013609
1754,000000	2,439876E-9	0,856445	0,014141
1755,000000	9,921879E-10	0,856934	0,015462
1756,000000	2,072744E-9	0,857422	0,016838
1757,000000	2,962361E-9	0,857910	0,017418
1758,000000	2,336063E-9	0,858398	0,018362
1759,000000	1,084234E-9	0,858887	0,019642
1760,000000	3,043882E-9	0,859375	0,020748
1761,000000	2,931987E-9	0,859863	0,022261
1762,000000	3,226306E-9	0,860352	0,024396
1763,000000	2,243942E-9	0,860840	0,024479
1764,000000	1,878759E-9	0,861328	0,025741
1765,000000	2,065200E-9	0,861816	0,026046
1766,000000	1,963399E-9	0,862305	0,026088
1767,000000	3,717185E-9	0,862793	0,027846
1768,000000	1,664184E-9	0,863281	0,028707
1769,000000	2,338858E-9	0,863770	0,030160
1770,000000	1,913987E-9	0,864258	0,030507
1771,000000	2,276768E-9	0,864746	0,030728
1772,000000	1,503848E-9	0,865234	0,031523
1773,000000	2,989438E-9	0,865723	0,032773
1774,000000	2,164302E-9	0,866211	0,032624
1775,000000	1,893736E-9	0,866699	0,033359
1776,000000	3,072897E-9	0,867187	0,034382
1777,000000	5,176717E-9	0,867676	0,034334
1778,000000	3,182103E-9	0,868164	0,034393
1779,000000	2,484398E-9	0,868652	0,034698
1780,000000	3,131821E-9	0,869141	0,035404
1781,000000	3,247652E-9	0,869629	0,036612
1782,000000	2,906254E-9	0,870117	0,036307
1783,000000	4,418744E-9	0,870605	0,037646
1784,000000	4,062587E-9	0,871094	0,037945
1785,000000	3,914665E-9	0,871582	0,038298
1786,000000	5,107739E-9	0,872070	0,038137
1787,000000	3,097024E-9	0,872559	0,038812
1788,000000	4,306765E-9	0,873047	0,038382
1789,000000	4,625479E-9	0,873535	0,038501
1790,000000	3,177445E-9	0,874023	0,037951
1791,000000	2,509264E-9	0,874512	0,037521
1792,000000	2,899960E-9	0,875000	0,037616
1793,000000	4,362364E-9	0,875488	0,037891
1794,000000	2,752966E-9	0,875977	0,037927
1795,000000	3,537771E-9	0,876465	0,037084
1796,000000	2,474212E-9	0,876953	0,036983
1797,000000	2,392028E-9	0,877441	0,036223
1798,000000	2,275221E-9	0,877930	0,036307
1799,000000	4,183837E-9	0,878418	0,035876
1800,000000	3,832963E-9	0,878906	0,035386
1801,000000	2,900934E-9	0,879395	0,035147
1802,000000	2,812125E-9	0,879883	0,033198
1803,000000	4,457972E-9	0,880371	0,033251
1804,000000	3,558020E-9	0,880859	0,033293
1805,000000	4,304575E-9	0,881348	0,032044
1806,000000	3,752363E-9	0,881836	0,032205
1807,000000	5,582989E-9	0,882324	0,031003
1808,000000	3,935660E-9	0,882812	0,030303
1809,000000	4,167979E-9	0,883301	0,029030
1810,000000	4,113213E-9	0,883789	0,028049
1811,000000	2,944304E-9	0,884277	0,027678
1812,000000	2,999381E-9	0,884766	0,027403
1813,000000	4,930429E-9	0,885254	0,026237
1814,000000	3,876594E-9	0,885742	0,025251
1815,000000	3,767064E-9	0,886230	0,024025
1816,000000	3,683791E-9	0,886719	0,022823
1817,000000	2,517687E-9	0,887207	0,022381
1818,000000	5,495610E-9	0,887695	0,021268
1819,000000	6,007504E-9	0,888184	0,020156
1820,000000	5,709435E-9	0,888672	0,020366
1821,000000	4,902039E-9	0,889160	0,018093
1822,000000	5,385064E-9	0,889648	0,017346
1823,000000	4,273005E-9	0,890137	0,015803
1824,000000	3,344431E-9	0,890625	0,014422
1825,000000	3,260836E-9	0,891113	0,014129
1826,000000	5,372170E-9	0,891602	0,012736
1827,000000	2,701587E-9	0,892090	0,011923
1828,000000	3,764503E-9	0,892578	0,010374
1829,000000	4,117982E-9	0,893066	0,009244
1830,000000	5,998793E-9	0,893555	0,007713
1831,000000	5,726812E-9	0,894043	0,006087
1832,000000	5,390484E-9	0,894531	0,005524
1833,000000	4,425788E-9	0,895020	0,003384
1834,000000	5,635398E-9	0,895508	0,002302
1835,000000	4,699369E-9	0,895996	0,001931
1836,000000	5,224715E-9	0,896484	0,000215
1837,000000	4,156399E-9	0,896973	0,001112
1838,000000	7,530273E-9	0,897461	-0,003194
1839,000000	4,496611E-9	0,897949	-0,003068
1840,000000	5,304661E-9	0,898437	-0,003660
1841,000000	4,436803E-9	0,898926	-0,002966
1842,000000	6,070257E-9	0,899414	-0,004832
1843,000000	5,705643E-9	0,899902	-0,006225
1844,000000	7,529016E-9	0,900391	-0,008844
1845,000000	6,117064E-9	0,900879	-0,008396
1846,000000	6,399876E-9	0,901367	-0,009789
1847,000000	6,948538E-9	0,901855	-0,010907
1848,000000	5,084863E-9	0,902344	-0,011978
1849,000000	4,817797E-9	0,902832	-0,013197
1850,000000	4,821558E-9	0,903320	-0,015547
1851,000000	4,132235E-9	0,903809	-0,014961
1852,000000	4,938188E-9	0,904297	-0,015272
1853,000000	6,328358E-9	0,904785	-0,016414
1854,000000	3,948147E-9	0,905273	-0,016749
1855,000000	5,305806E-9	0,905762	-0,017706
1856,000000	5,822218E-9	0,906250	-0,019548
1857,000000	5,696158E-9	0,906738	-0,021180
1858,000000	9,678692E-9	0,907227	-0,021455
1859,000000	6,792187E-9	0,907715	-0,022304
1860,000000	5,771171E-9	0,908203	-0,023751
1861,000000	8,513048E-9	0,908691	-0,023620
1862,000000	5,808981E-9	0,909180	-0,024295
1863,000000	6,461566E-9	0,909668	-0,025712
1864,000000	6,880324E-9	0,910156	-0,026687
1865,000000	7,274317E-9	0,910645	-0,025730
1866,000000	6,511495E-9	0,911133	-0,028977
1867,000000	8,150840E-9	0,911621	-0,026197
1868,000000	9,037349E-9	0,912109	-0,027500
1869,000000	4,735946E-9	0,912598	-0,028624
1870,000000	6,522332E-9	0,913086	-0,029432
1871,000000	8,755005E-9	0,913574	-0,030149
1872,000000	1,089247E-8	0,914062	-0,029193
1873,000000	8,579472E-9	0,914551	-0,030341
1874,000000	7,553712E-9	0,915039	-0,030663
1875,000000	8,987552E-9	0,915527	-0,031495
1876,000000	7,257523E-9	0,916016	-0,031608
1877,000000	9,420711E-9	0,916504	-0,030897
1878,000000	6,246097E-9	0,916992	-0,031285
1879,000000	8,745561E-9	0,917480	-0,032290
1880,000000	1,006811E-8	0,917969	-0,032170
1881,000000	1,284085E-8	0,918457	-0,032308
1882,000000	1,138898E-8	0,918945	-0,032380
1883,000000	8,259658E-9	0,919434	-0,032702
1884,000000	9,601037E-9	0,919922	-0,031662
1885,000000	1,210890E-8	0,920410	-0,031495
1886,000000	1,514629E-8	0,920898	-0,030950
1887,000000	1,060419E-8	0,921387	-0,032105
1888,000000	1,054611E-8	0,921875	-0,032200
1889,000000	8,705149E-9	0,922363	-0,031835
1890,000000	1,204825E-8	0,922852	-0,030663
1891,000000	8,835455E-9	0,923340	-0,031919
1892,000000	1,442668E-8	0,923828	-0,030107
1893,000000	1,378194E-8	0,924316	-0,030113
1894,000000	1,234343E-8	0,924805	-0,028762
1895,000000	1,270928E-8	0,925293	-0,027668
1896,000000	1,378477E-8	0,925781	-0,028308
1897,000000	1,008470E-8	0,926270	-0,027793
1898,000000	1,028133E-8	0,926758	-0,027967
1899,000000	9,955812E-9	0,927246	-0,026119
1900,000000	1,704171E-8	0,927734	-0,026855
1901,000000	1,295923E-8	0,928223	-0,025222
1902,000000	1,555951E-8	0,928711	-0,024224
1903,000000	1,651452E-8	0,929199	-0,023554
1904,000000	1,748809E-8	0,929687	-0,022866
1905,000000	2,111809E-8	0,930176	-0,021150
1906,000000	1,543311E-8	0,930664	-0,021264
1907,000000	1,515794E-8	0,931152	-0,020684
1908,000000	1,729678E-8	0,931641	-0,018226
1909,000000	1,310223E-8	0,932129	-0,019135
1910,000000	1,846514E-8	0,932617	-0,017377
1911,000000	1,447567E-8	0,933105	-0,015027
1912,000000	1,065793E-8	0,933594	-0,014758
1913,000000	1,831768E-8	0,934082	-0,014375
1914,000000	2,011434E-8	0,934570	-0,013155
1915,000000	1,794151E-8	0,935059	-0,011960
1916,000000	2,125276E-8	0,935547	-0,010782
1917,000000	1,689800E-8	0,936035	-0,010106
1918,000000	1,901978E-8	0,936523	-0,009412
1919,000000	2,155761E-8	0,937012	-0,007367
1920,000000	2,071572E-8	0,937500	-0,006058
1921,000000	2,772336E-8	0,937988	-0,005161
1922,000000	2,194018E-8	0,938477	-0,005143
1923,000000	2,338846E-8	0,938965	-0,003319
1924,000000	1,892410E-8	0,939453	-0,002578
1925,000000	2,163379E-8	0,939941	-0,001083
1926,000000	2,291626E-8	0,940430	-0,000174
1927,000000	2,626504E-8	0,940918	0,001524
1928,000000	3,002794E-8	0,941406	0,002589
1929,000000	2,656272E-8	0,941895	0,003479
1930,000000	3,931041E-8	0,942383	0,004173
1931,000000	3,550843E-8	0,942871	0,006104
1932,000000	3,273630E-8	0,943359	0,007300
1933,000000	3,270671E-8	0,943848	0,008759
1934,000000	2,679239E-8	0,944336	0,010583
1935,000000	2,733023E-8	0,944824	0,010176
1936,000000	3,510885E-8	0,945312	0,011378
1937,000000	3,455997E-8	0,945801	0,013501
1938,000000	4,661808E-8	0,946289	0,013973
1939,000000	3,780301E-8	0,946777	0,015881
1940,000000	3,776812E-8	0,947266	0,015074
1941,000000	4,133986E-8	0,947754	0,017848
1942,000000	4,603519E-8	0,948242	0,017776
1943,000000	5,002757E-8	0,948730	0,018279
1944,000000	5,755334E-8	0,949219	0,020497
1945,000000	5,728241E-8	0,949707	0,021454
1946,000000	8,677374E-8	0,950195	0,021747
1947,000000	2,132573E-8	0,950684	0,022315
1948,000000	3,433360E-8	0,951172	0,022530
1949,000000	3,773946E-8	0,951660	0,023834
1950,000000	7,770927E-8	0,952148	0,024808
1951,000000	6,817832E-8	0,952637	0,025980
1952,000000	6,333624E-8	0,953125	0,025921
1953,000000	3,587875E-8	0,953613	0,026004
1954,000000	9,206921E-8	0,954102	0,027774
1955,000000	5,178879E-8	0,954590	0,027786
1956,000000	9,493700E-8	0,955078	0,028827
1957,000000	8,209566E-8	0,955566	0,029096
1958,000000	7,746137E-8	0,956055	0,029921
1959,000000	9,846365E-8	0,956543	0,030495
1960,000000	9,985131E-8	0,957031	0,032432
1961,000000	8,818386E-8	0,957520	0,031948
1962,000000	8,242807E-8	0,958008	0,031464
1963,000000	9,013428E-8	0,958496	0,031792
1964,000000	1,429866E-7	0,958984	0,032307
1965,000000	1,029653E-7	0,959473	0,032970
1966,000000	1,269439E-7	0,959961	0,032725
1967,000000	1,122703E-7	0,960449	0,031768
1968,000000	2,657420E-7	0,960937	0,034627
1969,000000	3,149106E-7	0,961426	0,033939
1970,000000	2,805697E-7	0,961914	0,033437
1971,000000	3,430246E-7	0,962402	0,033813
1972,000000	1,493459E-7	0,962891	0,033108
1973,000000	1,970279E-7	0,963379	0,035613
1974,000000	2,364915E-7	0,963867	0,033395
1975,000000	2,748746E-7	0,964355	0,032235
1976,000000	3,169033E-7	0,964844	0,035912
1977,000000	3,613705E-7	0,965332	0,034310
1978,000000	4,580838E-7	0,965820	0,033766
1979,000000	5,038989E-7	0,966309	0,033945
1980,000000	6,425891E-7	0,966797	0,032277
1981,000000	8,152750E-7	0,967285	0,033813
1982,000000	1,012355E-6	0,967773	0,032911
1983,000000	1,320540E-6	0,968262	0,032002
1984,000000	1,868682E-6	0,968750	0,032402
1985,000000	2,696530E-6	0,969238	0,031649
1986,000000	4,457181E-6	0,969727	0,031703
1987,000000	9,080493E-6	0,970215	0,031105
1988,000000	2,726935E-5	0,970703	0,030561
1989,000000	0,000642	0,971191	0,030854
1990,000000	6,819062E-5	0,971680	0,029670
1991,000000	1,372721E-5	0,972168	0,029018
1992,000000	5,155754E-6	0,972656	0,027487
1993,000000	2,709674E-6	0,973145	0,027714
1994,000000	1,690163E-6	0,973633	0,026955
1995,000000	1,079861E-6	0,974121	0,026961
1996,000000	8,423413E-7	0,974609	0,026716
1997,000000	6,335854E-7	0,975098	0,025424
1998,000000	5,823794E-7	0,975586	0,024790
1999,000000	5,444506E-7	0,976074	0,023176
0,000000	2,612908E-6	0,976562	0,023272
1,000000	9,219875E-8	0,977051	0,021603
2,000000	7,512740E-8	0,977539	0,021585
3,000000	1,221540E-7	0,978027	0,021047
4,000000	1,325491E-7	0,978516	0,019253
5,000000	1,316953E-7	0,979004	0,016975
6,000000	1,920482E-7	0,979492	0,017603
7,000000	2,674385E-7	0,979980	0,015468
8,000000	4,044537E-7	0,980469	0,015696
9,000000	9,579197E-7	0,980957	0,013011
10,000000	4,280914E-6	0,981445	0,012574
11,000000	0,000107	0,981934	0,011014
12,000000	1,643325E-6	0,982422	0,009907
13,000000	5,432170E-7	0,982910	0,009608
14,000000	2,586512E-7	0,983398	0,008090
15,000000	1,326034E-7	0,983887	0,006302
16,000000	7,595127E-8	0,984375	0,005495
17,000000	7,095193E-8	0,984863	0,004448
18,000000	4,921246E-8	0,985352	0,002905
19,000000	3,506948E-8	0,985840	0,002810
20,000000	2,177549E-8	0,986328	0,001375
21,000000	1,703989E-8	0,986816	0,000388
22,000000	1,463164E-8	0,987305	-4,844011E-5
23,000000	1,111778E-8	0,987793	-0,001848
24,000000	9,571739E-9	0,988281	-0,003032
25,000000	5,023049E-9	0,988770	-0,003582
26,000000	5,426107E-9	0,989258	-0,003750
27,000000	9,911771E-9	0,989746	-0,006261
28,000000	4,888303E-10	0,990234	-0,006853
29,000000	5,593397E-8	0,990723	-0,007098
30,000000	2,576691E-8	0,991211	-0,009747
31,000000	2,328460E-9	0,991699	-0,010016
32,000000	6,302470E-9	0,992187	-0,010656
33,000000	5,380794E-9	0,992676	-0,011786
34,000000	4,498952E-9	0,993164	-0,013066
35,000000	9,011556E-9	0,993652	-0,014166
36,000000	3,926441E-9	0,994141	-0,015446
37,000000	7,852751E-10	0,994629	-0,016145
38,000000	2,497547E-9	0,995117	-0,016426
39,000000	3,096688E-9	0,995605	-0,017939
40,000000	7,681916E-10	0,996094	-0,018208
41,000000	2,937094E-9	0,996582	-0,019566
42,000000	4,789494E-9	0,997070	-0,019870
43,000000	7,532047E-10	0,997559	-0,021790
44,000000	2,517442E-9	0,998047	-0,022741
45,000000	2,302369E-9	0,998535	-0,022442
46,000000	1,223434E-10	0,999023	-0,023022
47,000000	1,544991E-9	0,999512	-0,023135
48,000000	3,072708E-9	1,000000	-0,024827
49,000000	5,662914E-10	1,000488	-0,024367
50,000000	1,931531E-9	1,000977	-0,025132
51,000000	4,855701E-10	1,001465	-0,025240
52,000000	1,778878E-9	1,001953	-0,025700
53,000000	5,401774E-10	1,002441	-0,026753
54,000000	7,599390E-9	1,002930	-0,027076
55,000000	1,091606E-9	1,003418	-0,026968
56,000000	1,356682E-9	1,003906	-0,028583
57,000000	3,402663E-10	1,004395	-0,028798
58,000000	8,869949E-10	1,004883	-0,029198
59,000000	1,779621E-9	1,005371	-0,028959
60,000000	7,400709E-10	1,005859	-0,028696
61,000000	8,956302E-10	1,006348	-0,029169
62,000000	3,210276E-10	1,006836	-0,028971
63,000000	9,312049E-10	1,007324	-0,029814
64,000000	4,406794E-10	1,007812	-0,029234
65,000000	2,347628E-9	1,008301	-0,030209
66,000000	9,560898E-10	1,008789	-0,029773
67,000000	2,358508E-10	1,009277	-0,029581
68,000000	4,832072E-10	1,009766	-0,028882
69,000000	1,884932E-9	1,010254	-0,029474
70,000000	4,973691E-10	1,010742	-0,029474
71,000000	1,655036E-9	1,011230	-0,028397
72,000000	1,228084E-9	1,011719	-0,028457
73,000000	6,696492E-11	1,012207	-0,027979
74,000000	1,808275E-9	1,012695	-0,029533
75,000000	1,657755E-9	1,013184	-0,028702
76,000000	2,791888E-10	1,013672	-0,028104
77,000000	8,279285E-10	1,014160	-0,026878
78,000000	3,685589E-10	1,014648	-0,026645
79,000000	8,686693E-10	1,015137	-0,026861
80,000000	1,977665E-10	1,015625	-0,025324
81,000000	6,989368E-10	1,016113	-0,026286
82,000000	2,053260E-9	1,016602	-0,023213
83,000000	6,526451E-10	1,017090	-0,023500
84,000000	1,236412E-9	1,017578	-0,023392
85,000000	3,855476E-10	1,018066	-0,023123
86,000000	9,660452E-10	1,018555	-0,021999
87,000000	2,945832E-10	1,019043	-0,021389
88,000000	3,835452E-10	1,019531	-0,019763
89,000000	1,231881E-9	1,020020	-0,019135
90,000000	1,364529E-10	1,020508	-0,018860
91,000000	4,514985E-10	1,020996	-0,019296
92,000000	1,938322E-9	1,021484	-0,018095
93,000000	2,444788E-10	1,021973	-0,016952
94,000000	2,342129E-10	1,022461	-0,015996
95,000000	4,067001E-10	1,022949	-0,015350
96,000000	3,656806E-11	1,023437	-0,015517
97,000000	1,095245E-9	1,023926	-0,014495
98,000000	2,877558E-10	1,024414	-0,013239
99,000000	9,140783E-10	1,024902	-0,011780
100,000000	7,186364E-10	1,025391	-0,010381
101,000000	5,952249E-10	1,025879	-0,010184
102,000000	4,803517E-10	1,026367	-0,009305
103,000000	3,801943E-10	1,026855	-0,007684
104,000000	8,535695E-10	1,027344	-0,007242
105,000000	2,715396E-10	1,027832	-0,006255
106,000000	4,114960E-10	1,028320	-0,004581
107,000000	4,226732E-11	1,028809	-0,003511
108,000000	2,040496E-10	1,029297	-0,002291
109,000000	1,652135E-10	1,029785	-0,002524
110,000000	2,756106E-10	1,030273	-0,001693
111,000000	6,372270E-10	1,030762	0,000280
112,000000	2,486970E-10	1,031250	0,001183
113,000000	1,303478E-10	1,031738	0,002995
114,000000	1,488905E-10	1,032227	0,003976
115,000000	3,316580E-10	1,032715	0,005339
116,000000	1,115210E-10	1,033203	0,006045
117,000000	3,981590E-10	1,033691	0,006954
118,000000	8,003701E-11	1,034180	0,007815
119,000000	1,727460E-10	1,034668	0,008652
120,000000	3,113658E-10	1,035156	0,010075
121,000000	5,126976E-10	1,035645	0,011163
122,000000	7,615514E-10	1,036133	0,012096
123,000000	2,231675E-10	1,036621	0,012407
124,000000	7,737724E-10	1,037109	0,014272
125,000000	3,546808E-10	1,037598	0,014793
126,000000	5,668467E-11	1,038086	0,017017
127,000000	1,867765E-10	1,038574	0,017400
128,000000	6,459240E-10	1,039062	0,017693
129,000000	7,608706E-11	1,039551	0,018637
130,000000	1,502091E-10	1,040039	0,019786
131,000000	3,588811E-10	1,040527	0,020234
132,000000	1,366916E-10	1,041016	0,020617
133,000000	2,582621E-10	1,041504	0,022046
134,000000	5,855099E-11	1,041992	0,023128
135,000000	2,528834E-10	1,042480	0,023816
136,000000	2,312810E-10	1,042969	0,024928
137,000000	3,477356E-10	1,043457	0,024970
138,000000	1,515343E-10	1,043945	0,026034
139,000000	1,978884E-9	1,044434	0,026620
140,000000	8,294894E-11	1,044922	0,026770
141,000000	7,604088E-11	1,045410	0,027493
142,000000	2,728909E-11	1,045898	0,027804
143,000000	1,395918E-10	1,046387	0,029024
144,000000	2,304024E-11	1,046875	0,028211
145,000000	3,574533E-10	1,047363	0,029987
146,000000	2,375062E-11	1,047852	0,029646
147,000000	5,277310E-11	1,048340	0,029592
148,000000	2,081497E-10	1,048828	0,029909
149,000000	1,044783E-10	1,049316	0,030919
150,000000	2,107372E-10	1,049805	0,030758
151,000000	6,674478E-12	1,050293	0,031344
152,000000	8,662518E-12	1,050781	0,030860
153,000000	1,514295E-10	1,051270	0,031320
154,000000	7,569534E-10	1,051758	0,030883
155,000000	3,421715E-11	1,052246	0,031948
156,000000	2,862183E-10	1,052734	0,031284
157,000000	3,518462E-10	1,053223	0,031577
158,000000	1,189465E-11	1,053711	0,031559
159,000000	3,026387E-11	1,054199	0,032612
160,000000	4,373517E-10	1,054687	0,031864
161,000000	5,013141E-10	1,055176	0,031326
162,000000	3,706993E-10	1,055664	0,031900
163,000000	2,687089E-10	1,056152	0,030770
164,000000	4,698165E-10	1,056641	0,031117
165,000000	5,168684E-10	1,057129	0,030985
166,000000	4,165249E-11	1,057617	0,030441
167,000000	2,426342E-10	1,058105	0,030806
168,000000	3,421305E-10	1,058594	0,029831
169,000000	2,181876E-10	1,059082	0,028809
170,000000	1,190852E-11	1,059570	0,029622
171,000000	3,499412E-10	1,060059	0,028133
172,000000	2,632007E-10	1,060547	0,028055
173,000000	2,802940E-10	1,061035	0,027308
174,000000	3,015809E-10	1,061523	0,026847
175,000000	1,121433E-10	1,062012	0,025484
176,000000	4,824797E-10	1,062500	0,026070
177,000000	3,082703E-10	1,062988	0,025281
178,000000	1,257922E-10	1,063477	0,024252
179,000000	1,661509E-9	1,063965	0,024007
180,000000	4,879918E-11	1,064453	0,022608
181,000000	2,662116E-10	1,064941	0,022393
182,000000	1,245660E-10	1,065430	0,021561
183,000000	9,726489E-11	1,065918	0,021065
184,000000	6,169869E-11	1,066406	0,020706
185,000000	7,555723E-12	1,066895	0,019086
186,000000	2,455171E-10	1,067383	0,018488
187,000000	1,682272E-10	1,067871	0,017681
188,000000	9,972226E-12	1,068359	0,016300
189,000000	2,005182E-10	1,068848	0,015654
190,000000	1,731382E-10	1,069336	0,014093
191,000000	1,196957E-10	1,069824	0,015576
192,000000	6,727508E-10	1,070312	0,014344
193,000000	3,069461E-10	1,070801	0,012072
194,000000	2,957665E-10	1,071289	0,011187
195,000000	2,889107E-10	1,071777	0,011217
196,000000	2,844506E-10	1,072266	0,009351
197,000000	1,945150E-10	1,072754	0,009788
198,000000	6,835320E-11	1,073242	0,007779
199,000000	8,274280E-11	1,073730	0,006816
200,000000	2,872034E-11	1,074219	0,006362
201,000000	3,793195E-12	1,074707	0,005638
202,000000	5,070006E-10	1,075195	0,005321
203,000000	1,543573E-10	1,075684	0,002822
204,000000	2,164943E-10	1,076172	0,002367
205,000000	1,623400E-10	1,076660	0,001452
206,000000	6,288641E-11	1,077148	-0,000144
207,000000	2,452602E-10	1,077637	-0,000760
208,000000	3,886035E-10	1,078125	-0,002201
209,000000	2,496856E-11	1,078613	-0,003511
210,000000	3,490917E-10	1,079102	-0,003636
211,000000	6,874416E-10	1,079590	-0,005322
212,000000	4,962599E-11	1,080078	-0,005747
213,000000	9,604758E-11	1,080566	-0,006566
214,000000	6,016527E-10	1,081055	-0,007678
215,000000	1,591884E-10	1,081543	-0,008163
216,000000	3,775119E-10	1,082031	-0,009675
217,000000	1,345474E-10	1,082520	-0,010776
218,000000	2,042480E-10	1,083008	-0,010752
219,000000	1,964513E-11	1,083496	-0,010823
220,000000	4,574013E-10	1,083984	-0,012181
221,000000	2,194152E-10	1,084473	-0,014280
222,000000	3,019174E-11	1,084961	-0,014806
223,000000	5,189960E-10	1,085449	-0,014674
224,000000	7,615745E-11	1,085937	-0,016755
225,000000	5,861194E-11	1,086426	-0,017377
226,000000	1,103578E-10	1,086914	-0,017808
227,000000	4,154383E-10	1,087402	-0,018770
228,000000	1,524227E-10	1,087891	-0,019404
229,000000	3,937693E-11	1,088379	-0,020050
230,000000	7,811435E-11	1,088867	-0,020486
231,000000	1,334898E-10	1,089355	-0,021754
232,000000	5,504001E-10	1,089844	-0,021880
233,000000	4,847542E-11	1,090332	-0,022238
234,000000	2,601123E-10	1,090820	-0,022938
235,000000	1,034146E-10	1,091309	-0,022800
236,000000	2,845828E-12	1,091797	-0,023404
237,000000	1,749334E-11	1,092285	-0,024014
238,000000	1,773409E-11	1,092773	-0,024463
239,000000	1,248377E-10	1,093262	-0,025126
240,000000	3,760305E-10	1,093750	-0,025706
241,000000	1,351521E-10	1,094238	-0,025814
242,000000	2,621533E-11	1,094727	-0,025485
243,000000	1,043469E-10	1,095215	-0,025168
244,000000	8,483478E-11	1,095703	-0,026155
245,000000	4,581870E-12	1,096191	-0,026490
246,000000	1,738733E-10	1,096680	-0,026173
247,000000	2,102252E-10	1,097168	-0,027614
248,000000	8,015349E-11	1,097656	-0,027225
249,000000	2,933698E-10	1,098145	-0,026615
250,000000	7,007516E-12	1,098633	-0,027016
251,000000	3,939251E-10	1,099121	-0,027823
252,000000	2,817578E-10	1,099609	-0,027775
253,000000	1,140049E-10	1,100098	-0,027985
254,000000	4,214628E-10	1,100586	-0,026843
255,000000	3,181544E-11	1,101074	-0,027584
256,000000	9,092864E-11	1,101562	-0,026538
257,000000	8,406440E-11	1,102051	-0,026179
258,000000	2,390308E-10	1,102539	-0,025641
259,000000	2,434790E-10	1,103027	-0,027076
260,000000	1,353855E-11	1,103516	-0,025844
261,000000	3,614799E-11	1,104004	-0,024624
262,000000	3,406106E-10	1,104492	-0,024582
263,000000	2,459797E-10	1,104980	-0,024732
264,000000	2,313292E-10	1,105469	-0,023691
265,000000	4,402247E-10	1,105957	-0,022280
266,000000	2,206888E-11	1,106445	-0,023506
267,000000	1,765813E-10	1,106934	-0,021114
268,000000	1,903795E-10	1,107422	-0,021347
269,000000	8,066559E-11	1,107910	-0,021401
270,000000	8,500054E-11	1,108398	-0,020032
271,000000	5,508258E-10	1,108887	-0,019063
272,000000	9,455616E-11	1,109375	-0,018573
273,000000	2,655088E-10	1,109863	-0,018549
274,000000	5,529604E-10	1,110352	-0,016707
275,000000	3,174860E-11	1,110840	-0,016229
276,000000	4,679058E-11	1,111328	-0,015242
277,000000	9,286524E-12	1,111816	-0,014973
278,000000	2,226950E-11	1,112305	-0,013628
279,000000	2,474973E-10	1,112793	-0,013562
280,000000	1,359557E-10	1,113281	-0,013000
281,000000	1,109678E-10	1,113770	-0,010913
282,000000	1,283960E-10	1,114258	-0,009795
283,000000	1,445484E-10	1,114746	-0,009191
284,000000	6,257837E-11	1,115234	-0,009305
285,000000	1,366225E-10	1,115723	-0,008868
286,000000	6,987574E-11	1,116211	-0,007308
287,000000	1,817377E-10	1,116699	-0,005849
288,000000	2,428443E-10	1,117187	-0,004922
289,000000	2,280554E-10	1,117676	-0,003277
290,000000	5,747542E-11	1,118164	-0,003062
291,000000	6,744056E-10	1,118652	-0,002422
292,000000	6,395404E-10	1,119141	-0,001651
293,000000	9,626903E-11	1,119629	-0,001788
294,000000	4,889787E-11	1,120117	0,000310
295,000000	1,063836E-9	1,120605	0,001805
296,000000	2,899976E-10	1,121094	0,001602
297,000000	3,858244E-11	1,121582	0,002636
298,000000	3,929804E-11	1,122070	0,003563
299,000000	9,129570E-10	1,122559	0,003653
300,000000	4,197998E-11	1,123047	0,005231
301,000000	6,406976E-12	1,123535	0,006762
302,000000	2,763291E-10	1,124023	0,006756
303,000000	2,920401E-11	1,124512	0,008251
304,000000	4,157788E-10	1,125000	0,009315
305,000000	9,775619E-10	1,125488	0,009034
306,000000	4,418917E-10	1,125977	0,010798
307,000000	1,201751E-10	1,126465	0,011737
308,000000	6,492297E-10	1,126953	0,012592
309,000000	5,264150E-10	1,127441	0,013154
310,000000	9,081312E-11	1,127930	0,014183
311,000000	2,075767E-12	1,128418	0,014882
312,000000	2,071968E-10	1,128906	0,017155
313,000000	9,136039E-11	1,129395	0,015660
314,000000	4,322343E-11	1,129883	0,018309
315,000000	8,851706E-10	1,130371	0,017083
316,000000	2,633654E-11	1,130859	0,018548
317,000000	1,689584E-10	1,131348	0,020563
318,000000	8,563290E-10	1,131836	0,020551
319,000000	9,991216E-11	1,132324	0,020324
320,000000	4,870230E-11	1,132812	0,020479
321,000000	7,703015E-11	1,133301	0,020898
322,000000	1,795070E-10	1,133789	0,023170
323,000000	2,540055E-10	1,134277	0,022704
324,000000	6,070338E-12	1,134766	0,024240
325,000000	1,640744E-10	1,135254	0,024467
326,000000	6,043154E-11	1,135742	0,024874
327,000000	1,286373E-10	1,136230	0,026399
328,000000	1,473519E-10	1,136719	0,025293
329,000000	3,582740E-12	1,137207	0,026429
330,000000	7,940005E-11	1,137695	0,027565
331,000000	3,766724E-11	1,138184	0,027415
332,000000	4,141486E-11	1,138672	0,027900
333,000000	2,376061E-10	1,139160	0,026901
334,000000	1,007346E-11	1,139648	0,028414
335,000000	2,396383E-10	1,140137	0,029694
336,000000	1,300691E-10	1,140625	0,028797
337,000000	2,975522E-11	1,141113	0,029532
338,000000	1,005230E-11	1,141602	0,029694
339,000000	1,886386E-10	1,142090	0,029735
340,000000	3,495356E-10	1,142578	0,030005
341,000000	3,264269E-11	1,143066	0,030644
342,000000	9,237748E-10	1,143555	0,029102
343,000000	2,128296E-10	1,144043	0,030447
344,000000	8,768246E-11	1,144531	0,030429
345,000000	4,380656E-10	1,145020	0,029383
346,000000	3,057920E-10	1,145508	0,029460
347,000000	9,802390E-11	1,145996	0,030280
348,000000	3,604063E-10	1,146484	0,029993
349,000000	1,126266E-10	1,146973	0,029114
350,000000	2,805540E-11	1,147461	0,029670
351,000000	2,199406E-11	1,147949	0,028850
352,000000	2,245195E-10	1,148437	0,027768
353,000000	1,133165E-10	1,148926	0,028294
354,000000	3,815238E-11	1,149414	0,027140
355,000000	4,528390E-11	1,149902	0,026453
356,000000	3,088822E-11	1,150391	0,026291
357,000000	3,240921E-11	1,150879	0,026022
358,000000	7,014770E-11	1,151367	0,025837
359,000000	5,510464E-11	1,151855	0,024707
360,000000	2,153365E-10	1,152344	0,024886
361,000000	7,703696E-11	1,152832	0,023774
362,000000	9,388161E-10	1,153320	0,023624
363,000000	1,400173E-10	1,153809	0,021819
364,000000	2,103108E-10	1,154297	0,021705
365,000000	1,261664E-11	1,154785	0,020946
366,000000	4,513336E-10	1,155273	0,019307
367,000000	3,406431E-11	1,155762	0,019540
368,000000	1,409705E-10	1,156250	0,019463
369,000000	1,587509E-10	1,156738	0,017651
370,000000	6,189965E-11	1,157227	0,016473
371,000000	1,764221E-11	1,157715	0,017047
372,000000	1,231321E-10	1,158203	0,016144
373,000000	2,222815E-11	1,158691	0,015080
374,000000	4,819091E-11	1,159180	0,013926
375,000000	3,446558E-11	1,159668	0,013112
376,000000	9,623116E-12	1,160156	0,012287
377,000000	1,681029E-10	1,160645	0,011205
378,000000	4,762621E-11	1,161133	0,010571
379,000000	7,577551E-11	1,161621	0,009100
380,000000	1,650452E-10	1,162109	0,008706
381,000000	1,439711E-10	1,162598	0,007797
382,000000	5,863871E-11	1,163086	0,006415
383,000000	2,426862E-11	1,163574	0,005961
384,000000	1,138801E-10	1,164062	0,003390
385,000000	7,871912E-11	1,164551	0,002941
386,000000	6,836008E-10	1,165039	0,002995
387,000000	1,068084E-10	1,165527	0,002648
388,000000	2,555000E-10	1,166016	0,001369
389,000000	4,352255E-11	1,166504	0,000442
390,000000	6,153765E-12	1,166992	-0,000425
391,000000	4,150571E-12	1,167480	-0,001908
392,000000	2,087365E-10	1,167969	-0,003289
393,000000	4,890583E-10	1,168457	-0,002763
394,000000	2,617715E-11	1,168945	-0,003403
395,000000	5,116301E-11	1,169434	-0,004868
396,000000	7,497988E-11	1,169922	-0,005801
397,000000	1,101372E-10	1,170410	-0,006734
398,000000	1,739659E-10	1,170898	-0,007977
399,000000	2,926308E-10	1,171387	-0,007726
400,000000	5,062976E-11	1,171875	-0,009711
401,000000	7,611669E-11	1,172363	-0,009400
402,000000	1,618693E-10	1,172852	-0,009921
403,000000	5,517846E-10	1,173340	-0,011200
404,000000	5,574292E-10	1,173828	-0,012229
405,000000	4,575814E-11	1,174316	-0,013155
406,000000	2,278464E-10	1,174805	-0,013466
407,000000	4,015429E-10	1,175293	-0,014202
408,000000	7,086923E-12	1,175781	-0,014011
409,000000	8,888758E-11	1,176270	-0,014351
410,000000	1,358458E-10	1,176758	-0,015978
411,000000	1,457744E-11	1,177246	-0,015655
412,000000	1,922171E-10	1,177734	-0,017568
413,000000	1,136042E-11	1,178223	-0,016833
414,000000	4,535357E-10	1,178711	-0,017544
415,000000	1,032059E-11	1,179199	-0,018130
416,000000	4,841917E-10	1,179687	-0,018286
417,000000	4,676807E-11	1,180176	-0,019661
418,000000	1,849254E-10	1,180664	-0,019613
419,000000	3,336392E-10	1,181152	-0,019595
420,000000	2,373940E-10	1,181641	-0,020510
421,000000	4,016399E-12	1,182129	-0,021987
422,000000	1,907437E-10	1,182617	-0,021862
423,000000	5,333069E-10	1,183105	-0,022699
424,000000	2,312068E-10	1,183594	-0,023171
425,000000	1,422428E-10	1,184082	-0,023249
426,000000	6,278612E-11	1,184570	-0,023679
427,000000	4,436785E-10	1,185059	-0,023709
428,000000	2,487345E-10	1,185547	-0,023135
429,000000	1,773549E-10	1,186035	-0,023859
430,000000	1,098338E-9	1,186523	-0,024899
431,000000	5,043131E-10	1,187012	-0,024570
432,000000	2,914913E-11	1,187500	-0,024827
433,000000	7,340590E-10	1,187988	-0,023327
434,000000	6,101963E-10	1,188477	-0,024188
435,000000	3,832386E-10	1,188965	-0,024230
436,000000	7,739732E-11	1,189453	-0,023990
437,000000	3,595858E-10	1,189941	-0,024678
438,000000	3,556576E-10	1,190430	-0,024086
439,000000	1,817596E-10	1,190918	-0,025742
440,000000	2,614800E-12	1,191406	-0,023901
441,000000	5,103346E-11	1,191895	-0,024540
442,000000	1,991507E-10	1,192383	-0,024122
443,000000	2,928833E-10	1,192871	-0,024014
444,000000	2,289035E-10	1,193359	-0,024265
445,000000	1,005180E-9	1,193848	-0,022741
446,000000	3,615973E-10	1,194336	-0,022507
447,000000	3,259073E-10	1,194824	-0,022179
448,000000	1,874322E-10	1,195312	-0,022196
449,000000	3,477325E-12	1,195801	-0,021401
450,000000	5,259515E-10	1,196289	-0,021449
451,000000	1,338432E-10	1,196777	-0,021365
452,000000	3,830239E-11	1,197266	-0,020038
453,000000	4,021398E-11	1,197754	-0,019021
454,000000	1,533599E-10	1,198242	-0,019338
455,000000	4,052756E-10	1,198730	-0,017090
456,000000	3,854611E-11	1,199219	-0,017706
457,000000	3,863952E-11	1,199707	-0,016223
458,000000	1,463169E-11	1,200195	-0,016576
459,000000	3,538479E-11	1,200684	-0,014561
460,000000	5,700281E-11	1,201172	-0,013771
461,000000	6,978706E-12	1,201660	-0,012868
462,000000	4,627565E-11	1,202148	-0,012707
463,000000	1,015984E-10	1,202637	-0,013030
464,000000	5,344281E-10	1,203125	-0,011039
465,000000	5,341173E-11	1,203613	-0,009364
466,000000	2,783847E-11	1,204102	-0,008557
467,000000	5,909344E-10	1,204590	-0,008587
468,000000	1,755659E-10	1,205078	-0,009131
469,000000	2,063529E-11	1,205566	-0,006309
470,000000	5,768600E-11	1,206055	-0,005615
471,000000	2,038942E-10	1,206543	-0,005113
472,000000	4,507349E-12	1,207031	-0,004509
473,000000	3,802874E-11	1,207520	-0,004061
474,000000	3,386729E-10	1,208008	-0,001478
475,000000	5,589453E-11	1,208496	-0,001992
476,000000	1,701307E-11	1,208984	-0,001944
477,000000	1,965698E-10	1,209473	0,000843
478,000000	3,329495E-11	1,209961	0,001052
479,000000	2,382242E-10	1,210449	0,002290
480,000000	1,372299E-10	1,210937	0,002887
481,000000	1,631806E-10	1,211426	0,003462
482,000000	1,193894E-10	1,211914	0,004287
483,000000	2,842218E-10	1,212402	0,005184
484,000000	3,024362E-12	1,212891	0,005919
485,000000	2,771579E-11	1,213379	0,007617
486,000000	1,933343E-10	1,213867	0,007342
487,000000	7,034225E-11	1,214355	0,008735
488,000000	1,814621E-11	1,214844	0,009465
489,000000	1,488019E-10	1,215332	0,009997
490,000000	1,584264E-11	1,215820	0,011151
491,000000	3,903461E-10	1,216309	0,011354
492,000000	2,651517E-11	1,216797	0,012216
493,000000	1,342154E-11	1,217285	0,013160
494,000000	5,174418E-11	1,217773	0,013675
495,000000	1,516310E-10	1,218262	0,014314
496,000000	2,304481E-10	1,218750	0,015379
497,000000	5,554062E-11	1,219238	0,015983
498,000000	6,838053E-12	1,219727	0,016371
499,000000	1,193584E-10	1,220215	0,016724
500,000000	2,678220E-11	1,220703	0,018195
501,000000	2,058562E-10	1,221191	0,018488
502,000000	2,637511E-11	1,221680	0,019666
503,000000	1,099963E-10	1,222168	0,020306
504,000000	2,849944E-10	1,222656	0,020150
505,000000	6,031811E-11	1,223145	0,020019
506,000000	1,252634E-10	1,223633	0,021555
507,000000	3,400167E-10	1,224121	0,022201
508,000000	1,570279E-11	1,224609	0,021615
509,000000	1,884819E-11	1,225098	0,021191
510,000000	5,792631E-12	1,225586	0,023026
511,000000	6,499419E-11	1,226074	0,023846
512,000000	9,453556E-11	1,226562	0,023606
513,000000	1,719271E-11	1,227051	0,023732
514,000000	1,093140E-10	1,227539	0,025173
515,000000	4,916462E-11	1,228027	0,024569
516,000000	1,385169E-10	1,228516	0,024755
517,000000	9,410693E-11	1,229004	0,024898
518,000000	1,046871E-10	1,229492	0,024737
519,000000	8,903995E-13	1,229980	0,024946
520,000000	2,292371E-11	1,230469	0,026273
521,000000	1,271536E-10	1,230957	0,026985
522,000000	5,473108E-11	1,231445	0,025693
523,000000	1,923456E-10	1,231934	0,026453
524,000000	3,247349E-10	1,232422	0,026542
525,000000	4,763559E-11	1,232910	0,026895
526,000000	8,015596E-11	1,233398	0,026285
527,000000	8,227089E-13	1,233887	0,026770
528,000000	1,086864E-10	1,234375	0,027565
529,000000	5,492857E-10	1,234863	0,027075
530,000000	1,467620E-12	1,235352	0,026877
531,000000	2,356519E-10	1,235840	0,026393
532,000000	1,292832E-10	1,236328	0,026315
533,000000	1,448941E-10	1,236816	0,026219
534,000000	2,052779E-10	1,237305	0,026417
535,000000	6,666765E-11	1,237793	0,027051
536,000000	1,708948E-11	1,238281	0,026148
537,000000	8,349472E-13	1,238770	0,026512
538,000000	3,527161E-10	1,239258	0,025663
539,000000	3,414034E-10	1,239746	0,025215
540,000000	2,266575E-11	1,240234	0,024139
541,000000	6,528952E-11	1,240723	0,024127
542,000000	7,950301E-11	1,241211	0,023720
543,000000	9,459407E-11	1,241699	0,023248
544,000000	3,600928E-10	1,242187	0,022291
545,000000	3,066172E-10	1,242676	0,021741
546,000000	1,561969E-10	1,243164	0,021137
547,000000	1,088478E-10	1,243652	0,020981
548,000000	9,876686E-10	1,244141	0,020748
549,000000	6,385232E-10	1,244629	0,019445
550,000000	1,018344E-10	1,245117	0,018231
551,000000	1,908101E-10	1,245605	0,018051
552,000000	2,612393E-10	1,246094	0,017370
553,000000	7,309719E-10	1,246582	0,015731
554,000000	8,281531E-12	1,247070	0,016359
555,000000	2,044008E-11	1,247559	0,015199
556,000000	4,339092E-11	1,248047	0,014356
557,000000	9,872145E-11	1,248535	0,015295
558,000000	2,671875E-11	1,249023	0,011313
559,000000	9,885939E-11	1,249512	0,012287
560,000000	5,330429E-11	1,250000	0,012072
561,000000	6,565663E-11	1,250488	0,010368
562,000000	4,233083E-11	1,250977	0,010338
563,000000	1,007253E-10	1,251465	0,009262
564,000000	5,378380E-11	1,251953	0,009022
565,000000	4,188499E-10	1,252441	0,008484
566,000000	2,876988E-12	1,252930	0,006206
567,000000	1,200225E-11	1,253418	0,006069
568,000000	2,860847E-10	1,253906	0,005202
569,000000	7,111780E-11	1,254395	0,004161
570,000000	4,321274E-11	1,254883	0,003067
571,000000	1,375813E-10	1,255371	0,002307
572,000000	3,077096E-10	1,255859	0,002349
573,000000	2,861899E-10	1,256348	0,000663
574,000000	5,785266E-11	1,256836	-0,000413
575,000000	1,034510E-9	1,257324	-4,246062E-5
576,000000	6,942663E-11	1,257812	-0,001747
577,000000	2,469446E-10	1,258301	-0,002626
578,000000	3,919648E-11	1,258789	-0,003780
579,000000	2,651957E-12	1,259277	-0,004856
580,000000	1,110971E-10	1,259766	-0,004868
581,000000	1,561819E-10	1,260254	-0,006482
582,000000	1,975770E-10	1,260742	-0,006787
583,000000	2,190532E-10	1,261230	-0,007618
584,000000	8,341103E-11	1,261719	-0,008330
585,000000	5,330501E-10	1,262207	-0,008761
586,000000	2,478214E-10	1,262695	-0,009693
587,000000	2,287272E-11	1,263184	-0,010465
588,000000	1,351972E-10	1,263672	-0,011445
589,000000	7,430324E-11	1,264160	-0,012007
590,000000	1,325498E-10	1,264648	-0,012067
591,000000	2,100315E-10	1,265137	-0,012988
592,000000	8,644420E-11	1,265625	-0,014327
593,000000	5,785808E-11	1,266113	-0,014531
594,000000	8,051060E-11	1,266602	-0,014662
595,000000	2,058735E-10	1,267090	-0,015021
596,000000	5,734773E-11	1,267578	-0,016911
597,000000	6,804487E-12	1,268066	-0,017036
598,000000	1,270383E-10	1,268555	-0,017072
599,000000	3,591285E-10	1,269043	-0,017646
600,000000	4,310753E-10	1,269531	-0,018657
601,000000	2,957062E-10	1,270020	-0,018172
602,000000	1,181438E-10	1,270508	-0,018734
603,000000	1,840959E-10	1,270996	-0,019721
604,000000	6,610090E-10	1,271484	-0,019577
605,000000	1,041167E-10	1,271973	-0,020815
606,000000	2,755917E-10	1,272461	-0,021401
607,000000	2,628915E-11	1,272949	-0,021551
608,000000	1,441753E-11	1,273437	-0,020283
609,000000	2,435343E-10	1,273926	-0,021132
610,000000	1,133543E-10	1,274414	-0,021108
611,000000	7,442134E-12	1,274902	-0,021658
612,000000	1,491116E-10	1,275391	-0,022328
613,000000	6,390000E-11	1,275879	-0,022143
614,000000	5,471679E-11	1,276367	-0,021999
615,000000	2,519900E-10	1,276855	-0,020941
616,000000	1,839634E-10	1,277344	-0,021359
617,000000	5,880976E-11	1,277832	-0,020923
618,000000	1,038046E-10	1,278320	-0,021425
619,000000	2,705708E-10	1,278809	-0,021300
620,000000	2,682646E-10	1,279297	-0,022017
621,000000	1,855576E-10	1,279785	-0,021652
622,000000	1,151459E-10	1,280273	-0,021640
623,000000	1,585712E-10	1,280762	-0,020702
624,000000	9,272926E-11	1,281250	-0,020337
625,000000	6,612520E-11	1,281738	-0,021515
626,000000	5,300445E-10	1,282227	-0,021276
627,000000	2,425398E-10	1,282715	-0,020797
628,000000	2,510024E-10	1,283203	-0,019876
629,000000	3,641798E-10	1,283691	-0,020175
630,000000	6,122454E-11	1,284180	-0,019338
631,000000	4,831792E-11	1,284668	-0,019548
632,000000	1,343151E-10	1,285156	-0,018405
633,000000	5,917353E-11	1,285645	-0,018657
634,000000	1,509993E-11	1,286133	-0,018118
635,000000	4,132710E-11	1,286621	-0,017975
636,000000	1,703963E-11	1,287109	-0,017509
637,000000	4,284740E-10	1,287598	-0,016480
638,000000	6,318348E-11	1,288086	-0,016008
639,000000	2,412326E-10	1,288574	-0,015948
640,000000	6,891380E-11	1,289062	-0,015081
641,000000	2,567658E-11	1,289551	-0,015410
642,000000	3,493687E-10	1,290039	-0,014220
643,000000	1,234548E-11	1,290527	-0,014142
644,000000	5,707580E-11	1,291016	-0,013425
645,000000	7,418551E-11	1,291504	-0,012366
646,000000	1,319156E-10	1,291992	-0,011786
647,000000	6,732064E-11	1,292480	-0,010973
648,000000	2,386462E-10	1,292969	-0,011063
649,000000	7,975209E-11	1,293457	-0,010519
650,000000	9,621731E-11	1,293945	-0,009795
651,000000	3,846783E-10	1,294434	-0,008994
652,000000	1,002274E-10	1,294922	-0,008216
653,000000	4,671659E-10	1,295410	-0,006644
654,000000	1,208276E-11	1,295898	-0,007768
655,000000	6,423660E-11	1,296387	-0,005980
656,000000	4,987045E-10	1,296875	-0,006249
657,000000	2,936201E-10	1,297363	-0,005579
658,000000	5,611868E-10	1,297852	-0,003451
659,000000	2,995972E-10	1,298340	-0,002022
660,000000	3,483317E-10	1,298828	-0,002321
661,000000	6,583917E-11	1,299316	-0,001693
662,000000	4,806284E-11	1,299805	-4,246062E-5
663,000000	3,320909E-10	1,300293	0,000795
664,000000	1,270126E-10	1,300781	0,000854
665,000000	9,623552E-13	1,301270	0,002224
666,000000	6,153422E-10	1,301758	0,002337
667,000000	2,733508E-10	1,302246	0,004693
668,000000	1,439635E-10	1,302734	0,005698
669,000000	3,605638E-10	1,303223	0,005219
670,000000	1,878978E-10	1,303711	0,006541
671,000000	6,519347E-11	1,304199	0,007916
672,000000	6,636612E-11	1,304687	0,008012
673,000000	7,062168E-12	1,305176	0,010900
674,000000	1,126996E-10	1,305664	0,011719
675,000000	1,383412E-10	1,306152	0,010230
676,000000	1,261742E-12	1,306641	0,012449
677,000000	6,451453E-11	1,307129	0,013435
678,000000	3,301632E-11	1,307617	0,015134
679,000000	2,510884E-11	1,308105	0,014117
680,000000	5,101315E-11	1,308594	0,016724
681,000000	7,486889E-10	1,309082	0,015845
682,000000	1,526886E-10	1,309570	0,016270
683,000000	4,412534E-11	1,310059	0,016927
684,000000	1,374237E-10	1,310547	0,017872
685,000000	5,820427E-11	1,311035	0,019044
686,000000	7,895519E-10	1,311523	0,019630
687,000000	7,964357E-10	1,312012	0,019259
688,000000	6,070798E-11	1,312500	0,020557
689,000000	1,442640E-10	1,312988	0,019690
690,000000	8,614732E-12	1,313477	0,020904
691,000000	1,431263E-10	1,313965	0,021687
692,000000	2,860922E-11	1,314453	0,023421
693,000000	1,198954E-10	1,314941	0,021932
694,000000	4,175953E-10	1,315430	0,022859
695,000000	7,652639E-12	1,315918	0,023349
696,000000	5,851195E-10	1,316406	0,022518
697,000000	1,504849E-11	1,316895	0,023577
698,000000	2,920862E-10	1,317383	0,024103
699,000000	3,847760E-11	1,317871	0,023636
700,000000	3,277450E-10	1,318359	0,022763
701,000000	1,554607E-11	1,318848	0,025000
702,000000	5,404862E-10	1,319336	0,024928
703,000000	8,032626E-10	1,319824	0,024844
704,000000	8,191568E-11	1,320312	0,024838
705,000000	7,796669E-11	1,320801	0,025430
706,000000	5,342814E-11	1,321289	0,024856
707,000000	3,209403E-10	1,321777	0,024025
708,000000	8,985168E-11	1,322266	0,023798
709,000000	1,220194E-10	1,322754	0,023206
710,000000	1,122338E-10	1,323242	0,023917
711,000000	3,358547E-12	1,323730	0,024611
712,000000	1,020772E-10	1,324219	0,023547
713,000000	2,634927E-12	1,324707	0,024611
714,000000	2,000727E-10	1,325195	0,024294
715,000000	2,403448E-11	1,325684	0,024067
716,000000	3,239719E-11	1,326172	0,023726
717,000000	5,758832E-11	1,326660	0,023792
718,000000	6,778429E-11	1,327148	0,024390
719,000000	1,573792E-11	1,327637	0,023409
720,000000	1,034393E-10	1,328125	0,023242
721,000000	2,670263E-10	1,328613	0,022285
722,000000	1,572797E-10	1,329102	0,023200
723,000000	5,484597E-11	1,329590	0,022094
724,000000	2,656210E-10	1,330078	0,020904
725,000000	7,490018E-11	1,330566	0,022339
726,000000	1,647641E-10	1,331055	0,022010
727,000000	5,000478E-11	1,331543	0,020270
728,000000	3,020661E-11	1,332031	0,019427
729,000000	5,827315E-11	1,332520	0,019493
730,000000	1,431680E-10	1,333008	0,018889
731,000000	2,404560E-10	1,333496	0,018309
732,000000	3,418840E-11	1,333984	0,017567
733,000000	7,439741E-11	1,334473	0,016425
734,000000	3,373156E-10	1,334961	0,016724
735,000000	3,099399E-11	1,335449	0,015833
736,000000	2,474326E-10	1,335937	0,016126
737,000000	1,063184E-10	1,336426	0,014488
738,000000	2,727113E-10	1,336914	0,014189
739,000000	3,857912E-11	1,337402	0,013268
740,000000	2,998881E-10	1,337891	0,012670
741,000000	3,940703E-10	1,338379	0,012730
742,000000	2,590865E-10	1,338867	0,010637
743,000000	4,687396E-11	1,339355	0,010410
744,000000	1,652591E-11	1,339844	0,011295
745,000000	1,678421E-10	1,340332	0,008694
746,000000	6,649973E-11	1,340820	0,008604
747,000000	1,310377E-10	1,341309	0,008299
748,000000	3,122524E-11	1,341797	0,007785
749,000000	9,017849E-11	1,342285	0,006738
750,000000	2,883500E-11	1,342773	0,007115
751,000000	7,918539E-10	1,343262	0,005429
752,000000	2,567561E-10	1,343750	0,004358
753,000000	2,980754E-11	1,344238	0,003904
754,000000	5,104493E-10	1,344727	0,003976
755,000000	5,871176E-11	1,345215	0,002523
756,000000	5,002399E-11	1,345703	0,002026
757,000000	1,788630E-10	1,346191	0,001309
758,000000	3,638235E-11	1,346680	0,001530
759,000000	3,025913E-10	1,347168	-0,000748
760,000000	3,183838E-10	1,347656	-0,001442
761,000000	9,513144E-11	1,348145	0,000227
762,000000	1,141446E-10	1,348633	-0,002249
763,000000	6,520111E-12	1,349121	-0,002351
764,000000	5,112814E-10	1,349609	-0,003056
765,000000	1,206274E-11	1,350098	-0,004473
766,000000	8,066281E-11	1,350586	-0,006177
767,000000	1,915840E-10	1,351074	-0,006464
768,000000	3,348519E-10	1,351562	-0,007774
769,000000	1,141835E-11	1,352051	-0,008539
770,000000	4,644792E-12	1,352539	-0,008462
771,000000	3,374464E-10	1,353027	-0,009604
772,000000	3,209980E-10	1,353516	-0,010931
773,000000	1,557607E-10	1,354004	-0,011278
774,000000	1,285838E-10	1,354492	-0,012677
775,000000	2,189255E-10	1,354980	-0,012599
776,000000	4,936644E-10	1,355469	-0,013831
777,000000	2,062256E-10	1,355957	-0,015159
778,000000	4,160502E-11	1,356445	-0,014453
779,000000	2,743696E-10	1,356934	-0,015171
780,000000	6,355602E-11	1,357422	-0,015972
781,000000	1,960873E-11	1,357910	-0,016821
782,000000	6,101023E-11	1,358398	-0,015996
783,000000	5,162146E-11	1,358887	-0,017275
784,000000	5,847298E-10	1,359375	-0,017018
785,000000	2,485841E-10	1,359863	-0,018130
786,000000	4,350609E-10	1,360352	-0,018830
787,000000	6,187336E-12	1,360840	-0,018513
788,000000	3,130991E-10	1,361328	-0,019416
789,000000	2,706691E-10	1,361816	-0,018716
790,000000	1,065456E-10	1,362305	-0,019942
791,000000	2,493812E-10	1,362793	-0,018734
792,000000	1,228652E-11	1,363281	-0,020732
793,000000	2,546542E-10	1,363770	-0,018962
794,000000	4,073819E-10	1,364258	-0,019996
795,000000	7,098429E-12	1,364746	-0,021479
796,000000	8,107119E-11	1,365234	-0,019859
797,000000	2,709904E-10	1,365723	-0,020821
798,000000	6,680958E-10	1,366211	-0,019667
799,000000	5,120416E-10	1,366699	-0,021042
800,000000	7,793874E-11	1,367187	-0,022352
801,000000	6,232758E-10	1,367676	-0,020361
802,000000	2,525058E-12	1,368164	-0,019314
803,000000	3,441291E-12	1,368652	-0,021048
804,000000	2,564470E-10	1,369141	-0,020534
805,000000	1,288296E-10	1,369629	-0,020600
806,000000	1,294939E-10	1,370117	-0,019583
807,000000	2,120694E-10	1,370605	-0,019990
808,000000	1,268008E-10	1,371094	-0,018585
809,000000	6,323566E-10	1,371582	-0,018968
810,000000	3,444903E-11	1,372070	-0,018980
811,000000	6,541772E-11	1,372559	-0,018250
812,000000	8,339136E-11	1,373047	-0,018136
813,000000	5,046210E-11	1,373535	-0,018525
814,000000	4,783270E-11	1,374023	-0,016253
815,000000	1,109345E-10	1,374512	-0,017066
816,000000	1,950172E-10	1,375000	-0,016701
817,000000	3,230554E-12	1,375488	-0,013891
818,000000	2,091822E-10	1,375977	-0,016205
819,000000	1,617437E-10	1,376465	-0,015553
820,000000	7,698676E-11	1,376953	-0,015751
821,000000	8,897605E-11	1,377441	-0,014878
822,000000	5,071348E-10	1,377930	-0,013724
823,000000	1,061847E-11	1,378418	-0,014531
824,000000	1,123638E-10	1,378906	-0,012934
825,000000	7,229894E-11	1,379395	-0,012946
826,000000	6,612524E-11	1,379883	-0,012336
827,000000	2,603740E-10	1,380371	-0,011099
828,000000	3,244767E-11	1,380859	-0,010710
829,000000	2,618759E-10	1,381348	-0,010190
830,000000	1,237533E-10	1,381836	-0,010369
831,000000	3,194227E-10	1,382324	-0,007607
832,000000	1,574474E-10	1,382812	-0,007888
833,000000	1,688512E-10	1,383301	-0,007290
834,000000	3,052307E-11	1,383789	-0,006656
835,000000	8,445710E-11	1,384277	-0,005442
836,000000	1,005607E-10	1,384766	-0,004874
837,000000	1,871382E-10	1,385254	-0,004611
838,000000	1,661971E-10	1,385742	-0,004013
839,000000	5,702277E-11	1,386230	-0,003451
840,000000	2,302463E-11	1,386719	-0,003457
841,000000	2,427272E-11	1,387207	-0,002052
842,000000	6,527849E-11	1,387695	-0,001292
843,000000	1,449118E-10	1,388184	-0,001262
844,000000	1,933664E-10	1,388672	-0,000443
845,000000	2,188815E-10	1,389160	0,001255
846,000000	4,846178E-11	1,389648	0,001393
847,000000	1,165868E-10	1,390137	0,001243
848,000000	5,475805E-11	1,390625	0,003216
849,000000	2,838088E-10	1,391113	0,003372
850,000000	2,760435E-10	1,391602	0,003988
851,000000	2,310063E-10	1,392090	0,004783
852,000000	3,263044E-10	1,392578	0,005393
853,000000	4,353232E-12	1,393066	0,006553
854,000000	2,499971E-10	1,393555	0,007563
855,000000	2,222624E-11	1,394043	0,008120
856,000000	2,334637E-10	1,394531	0,008855
857,000000	1,280876E-10	1,395020	0,008987
858,000000	4,083402E-11	1,395508	0,009746
859,000000	2,326174E-10	1,395996	0,010757
860,000000	1,412906E-10	1,396484	0,010709
861,000000	1,550227E-10	1,396973	0,012174
862,000000	2,325054E-10	1,397461	0,012401
863,000000	3,314539E-10	1,397949	0,013322
864,000000	8,137992E-11	1,398437	0,013758
865,000000	1,603295E-10	1,398926	0,014350
866,000000	1,885693E-10	1,399414	0,014565
867,000000	1,068084E-10	1,399902	0,016108
868,000000	3,926037E-11	1,400391	0,016503
869,000000	4,253159E-11	1,400879	0,016951
870,000000	7,561956E-11	1,401367	0,016981
871,000000	1,164524E-10	1,401855	0,017639
872,000000	4,244978E-10	1,402344	0,018632
873,000000	1,082839E-10	1,402832	0,018781
874,000000	5,419521E-12	1,403320	0,020288
875,000000	1,580234E-10	1,403809	0,019708
876,000000	1,644401E-11	1,404297	0,019809
877,000000	6,435396E-11	1,404785	0,020031
878,000000	5,579683E-11	1,405273	0,021292
879,000000	4,734031E-11	1,405762	0,020593
880,000000	9,315975E-12	1,406250	0,021567
881,000000	1,258173E-10	1,406738	0,022219
882,000000	2,890666E-11	1,407227	0,022118
883,000000	1,333049E-10	1,407715	0,023529
884,000000	7,340427E-11	1,408203	0,022417
885,000000	5,028977E-11	1,408691	0,022231
886,000000	1,097482E-10	1,409180	0,024222
887,000000	1,330480E-11	1,409668	0,023565
888,000000	5,609661E-11	1,410156	0,023648
889,000000	3,135054E-10	1,410645	0,024157
890,000000	1,680945E-10	1,411133	0,024904
891,000000	2,164881E-10	1,411621	0,024820
892,000000	9,970671E-11	1,412109	0,024892
893,000000	2,913841E-11	1,412598	0,024653
894,000000	6,075071E-11	1,413086	0,024204
895,000000	1,063128E-10	1,413574	0,024270
896,000000	2,517530E-10	1,414062	0,024139
897,000000	5,267668E-11	1,414551	0,024312
898,000000	2,584498E-10	1,415039	0,023726
899,000000	1,118165E-10	1,415527	0,022769
900,000000	9,890777E-12	1,416016	0,022889
901,000000	7,545207E-11	1,416504	0,023343
902,000000	3,340106E-11	1,416992	0,022428
903,000000	7,899222E-11	1,417480	0,021663
904,000000	1,733794E-10	1,417969	0,021376
905,000000	4,352541E-10	1,418457	0,021328
906,000000	1,845785E-10	1,418945	0,020437
907,000000	4,170067E-11	1,419434	0,022309
908,000000	4,655222E-11	1,419922	0,021938
909,000000	1,041559E-10	1,420410	0,019558
910,000000	1,065032E-10	1,420898	0,019463
911,000000	2,113823E-11	1,421387	0,019971
912,000000	9,397771E-11	1,421875	0,018548
913,000000	1,265393E-10	1,422363	0,018117
914,000000	3,635910E-12	1,422852	0,016856
915,000000	7,194413E-12	1,423340	0,016539
916,000000	5,003425E-10	1,423828	0,015917
917,000000	4,494762E-10	1,424316	0,015749
918,000000	3,836314E-11	1,424805	0,014745
919,000000	3,003924E-10	1,425293	0,013956
920,000000	9,461549E-11	1,425781	0,013387
921,000000	8,715843E-11	1,426270	0,013830
922,000000	5,789534E-11	1,426758	0,012897
923,000000	9,989274E-12	1,427246	0,012646
924,000000	6,864513E-11	1,427734	0,011731
925,000000	2,829251E-11	1,428223	0,010368
926,000000	5,972871E-11	1,428711	0,010081
927,000000	3,224630E-10	1,429199	0,009142
928,000000	3,913031E-11	1,429687	0,008807
929,000000	1,028779E-10	1,430176	0,008167
930,000000	1,117550E-10	1,430664	0,007761
931,000000	1,773372E-10	1,431152	0,006774
932,000000	4,037842E-11	1,431641	0,005979
933,000000	7,348686E-11	1,432129	0,004849
934,000000	4,469114E-11	1,432617	0,004149
935,000000	6,348312E-11	1,433105	0,004293
936,000000	7,344066E-11	1,433594	0,003031
937,000000	4,969115E-11	1,434082	0,003055
938,000000	1,534306E-11	1,434570	0,001859
939,000000	6,344223E-10	1,435059	0,000663
940,000000	6,887410E-10	1,435547	3,527284E-5
941,000000	1,435124E-10	1,436035	-0,000569
942,000000	5,598417E-12	1,436523	-0,000969
943,000000	1,813281E-11	1,437012	-0,001794
944,000000	2,971087E-10	1,437500	-0,001806
945,000000	9,074656E-11	1,437988	-0,003379
946,000000	4,048924E-11	1,438477	-0,003827
947,000000	2,120781E-10	1,438965	-0,004599
948,000000	5,484595E-12	1,439453	-0,004593
949,000000	4,600305E-11	1,439941	-0,004964
950,000000	2,272155E-10	1,440430	-0,006237
951,000000	2,030043E-10	1,440918	-0,005346
952,000000	2,431272E-10	1,441406	-0,007320
953,000000	2,198474E-10	1,441895	-0,008007
954,000000	6,355650E-10	1,442383	-0,007361
955,000000	5,942325E-10	1,442871	-0,009030
956,000000	1,754351E-10	1,443359	-0,009693
957,000000	1,698619E-10	1,443848	-0,010435
958,000000	1,358664E-10	1,444336	-0,011571
959,000000	5,699090E-11	1,444824	-0,010399
960,000000	6,525575E-11	1,445312	-0,012145
961,000000	3,940922E-10	1,445801	-0,011523
962,000000	3,458322E-10	1,446289	-0,012683
963,000000	5,511703E-11	1,446777	-0,012617
964,000000	2,988298E-10	1,447266	-0,013102
965,000000	6,017037E-12	1,447754	-0,014202
966,000000	3,006838E-11	1,448242	-0,014148
967,000000	5,861859E-10	1,448730	-0,015230
968,000000	3,556421E-10	1,449219	-0,014190
969,000000	3,886623E-11	1,449707	-0,015571
970,000000	9,759953E-12	1,450195	-0,014991
971,000000	1,061866E-10	1,450684	-0,016020
972,000000	6,047943E-11	1,451172	-0,016079
973,000000	1,781891E-10	1,451660	-0,016642
974,000000	8,543452E-12	1,452148	-0,016289
975,000000	9,046066E-11	1,452637	-0,017509
976,000000	1,164646E-10	1,453125	-0,017335
977,000000	1,943430E-10	1,453613	-0,016946
978,000000	3,412682E-11	1,454102	-0,017222
979,000000	3,843086E-11	1,454590	-0,018710
980,000000	1,174280E-10	1,455078	-0,018166
981,000000	1,297106E-11	1,455566	-0,018770
982,000000	6,419137E-11	1,456055	-0,019081
983,000000	3,869854E-11	1,456543	-0,019506
984,000000	6,404931E-12	1,457031	-0,018627
985,000000	4,589858E-11	1,457520	-0,019039
986,000000	3,874576E-11	1,458008	-0,018956
987,000000	2,790380E-11	1,458496	-0,018997
988,000000	3,034821E-11	1,458984	-0,019787
989,000000	2,935767E-11	1,459473	-0,019063
990,000000	4,826567E-11	1,459961	-0,018364
991,000000	5,651793E-11	1,460449	-0,017616
992,000000	1,384916E-10	1,460937	-0,018974
993,000000	4,030826E-11	1,461426	-0,019512
994,000000	6,596522E-11	1,461914	-0,017515
995,000000	1,500300E-10	1,462402	-0,017694
996,000000	2,253347E-12	1,462891	-0,017018
997,000000	1,142164E-10	1,463379	-0,017299
998,000000	5,401608E-11	1,463867	-0,016845
999,000000	2,275689E-11	1,464355	-0,017275
1000,000000	6,307073E-14	1,464844	-0,016361
1001,000000	2,275689E-11	1,465332	-0,016097
1002,000000	5,401608E-11	1,465820	-0,015195
1003,000000	1,142164E-10	1,466309	-0,014459
1004,000000	2,253347E-12	1,466797	-0,013568
1005,000000	1,500300E-10	1,467285	-0,013126
1006,000000	6,596522E-11	1,467773	-0,013060
1007,000000	4,030826E-11	1,468262	-0,013120
1008,000000	1,384916E-10	1,468750	-0,012426
1009,000000	5,651793E-11	1,469238	-0,010943
1010,000000	4,826567E-11	1,469727	-0,010477
1011,000000	2,935767E-11	1,470215	-0,009167
1012,000000	3,034821E-11	1,470703	-0,009592
1013,000000	2,790380E-11	1,471191	-0,008940
1014,000000	3,874576E-11	1,471680	-0,007750
1015,000000	4,589858E-11	1,472168	-0,008360
1016,000000	6,404931E-12	1,472656	-0,007140
1017,000000	3,869854E-11	1,473145	-0,006070
1018,000000	6,419137E-11	1,473633	-0,005406
1019,000000	1,297106E-11	1,474121	-0,004318
1020,000000	1,174280E-10	1,474609	-0,003971
1021,000000	3,843086E-11	1,475098	-0,002847
1022,000000	3,412682E-11	1,475586	-0,003630
1023,000000	1,943430E-10	1,476074	-0,001149
1024,000000	1,164646E-10	1,476562	-0,000575
1025,000000	9,046066E-11	1,477051	-0,001920
1026,000000	8,543452E-12	1,477539	8,310882E-5
1027,000000	1,781891E-10	1,478027	0,001159
1028,000000	6,047943E-11	1,478516	0,000274
1029,000000	1,061866E-10	1,479004	0,001500
1030,000000	9,759953E-12	1,479492	0,002487
1031,000000	3,886623E-11	1,479980	0,002780
1032,000000	3,556421E-10	1,480469	0,003294
1033,000000	5,861859E-10	1,480957	0,003133
1034,000000	3,006838E-11	1,481445	0,004711
1035,000000	6,017037E-12	1,481934	0,005411
1036,000000	2,988298E-10	1,482422	0,006493
1037,000000	5,511703E-11	1,482910	0,007079
1038,000000	3,458322E-10	1,483398	0,007874
1039,000000	3,940922E-10	1,483887	0,008496
1040,000000	6,525575E-11	1,484375	0,009674
1041,000000	5,699090E-11	1,484863	0,009154
1042,000000	1,358664E-10	1,485352	0,009860
1043,000000	1,698619E-10	1,485840	0,011097
1044,000000	1,754351E-10	1,486328	0,012084
1045,000000	5,942325E-10	1,486816	0,012108
1046,000000	6,355650E-10	1,487305	0,013740
1047,000000	2,198474E-10	1,487793	0,012664
1048,000000	2,431272E-10	1,488281	0,013555
1049,000000	2,030043E-10	1,488770	0,015289
1050,000000	2,272155E-10	1,489258	0,016246
1051,000000	4,600305E-11	1,489746	0,016575
1052,000000	5,484595E-12	1,490234	0,016323
1053,000000	2,120781E-10	1,490723	0,016102
1054,000000	4,048924E-11	1,491211	0,016114
1055,000000	9,074656E-11	1,491699	0,017968
1056,000000	2,971087E-10	1,492187	0,017764
1057,000000	1,813281E-11	1,492676	0,018847
1058,000000	5,598417E-12	1,493164	0,016497
1059,000000	1,435124E-10	1,493652	0,017926
1060,000000	6,887410E-10	1,494141	0,018554
1061,000000	6,344223E-10	1,494629	0,019044
1062,000000	1,534306E-11	1,495117	0,018655
1063,000000	4,969115E-11	1,495605	0,019038
1064,000000	7,344066E-11	1,496094	0,020264
1065,000000	6,348312E-11	1,496582	0,018548
1066,000000	4,469114E-11	1,497070	0,020473
1067,000000	7,348686E-11	1,497559	0,019768
1068,000000	4,037842E-11	1,498047	0,020108
1069,000000	1,773372E-10	1,498535	0,021227
1070,000000	1,117550E-10	1,499023	0,020969
1071,000000	1,028779E-10	1,499512	0,019373
1072,000000	3,913031E-11	1,500000	0,021651
1073,000000	3,224630E-10	1,500488	0,021717
1074,000000	5,972871E-11	1,500977	0,021077
1075,000000	2,829251E-11	1,501465	0,021860
1076,000000	6,864513E-11	1,501953	0,021663
1077,000000	9,989274E-12	1,502441	0,021550
1078,000000	5,789534E-11	1,502930	0,022070
1079,000000	8,715843E-11	1,503418	0,021466
1080,000000	9,461549E-11	1,503906	0,021842
1081,000000	3,003924E-10	1,504395	0,022112
1082,000000	3,836314E-11	1,504883	0,021268
1083,000000	4,494762E-10	1,505371	0,021801
1084,000000	5,003425E-10	1,505859	0,020425
1085,000000	7,194413E-12	1,506348	0,020671
1086,000000	3,635910E-12	1,506836	0,020790
1087,000000	1,265393E-10	1,507324	0,020455
1088,000000	9,397771E-11	1,507812	0,020730
1089,000000	2,113823E-11	1,508301	0,020748
1090,000000	1,065032E-10	1,508789	0,019768
1091,000000	1,041559E-10	1,509277	0,019343
1092,000000	4,655222E-11	1,509766	0,018895
1093,000000	4,170067E-11	1,510254	0,018919
1094,000000	1,845785E-10	1,510742	0,018560
1095,000000	4,352541E-10	1,511230	0,017543
1096,000000	1,733794E-10	1,511719	0,017029
1097,000000	7,899222E-11	1,512207	0,017131
1098,000000	3,340106E-11	1,512695	0,016467
1099,000000	7,545207E-11	1,513184	0,015869
1100,000000	9,890777E-12	1,513672	0,014643
1101,000000	1,118165E-10	1,514160	0,014685
1102,000000	2,584498E-10	1,514648	0,013537
1103,000000	5,267668E-11	1,515137	0,013591
1104,000000	2,517530E-10	1,515625	0,012975
1105,000000	1,063128E-10	1,516113	0,011468
1106,000000	6,075071E-11	1,516602	0,011671
1107,000000	2,913841E-11	1,517090	0,010595
1108,000000	9,970671E-11	1,517578	0,010517
1109,000000	2,164881E-10	1,518066	0,009860
1110,000000	1,680945E-10	1,518555	0,009094
1111,000000	3,135054E-10	1,519043	0,008783
1112,000000	5,609661E-11	1,519531	0,008114
1113,000000	1,330480E-11	1,520020	0,006368
1114,000000	1,097482E-10	1,520508	0,006039
1115,000000	5,028977E-11	1,520996	0,005536
1116,000000	7,340427E-11	1,521484	0,005369
1117,000000	1,333049E-10	1,521973	0,004598
1118,000000	2,890666E-11	1,522461	0,004460
1119,000000	1,258173E-10	1,522949	0,004317
1120,000000	9,315975E-12	1,523437	0,002618
1121,000000	4,734031E-11	1,523926	0,002296
1122,000000	5,579683E-11	1,524414	0,001070
1123,000000	6,435396E-11	1,524902	-0,000174
1124,000000	1,644401E-11	1,525391	0,000406
1125,000000	1,580234E-10	1,525879	-0,000748
1126,000000	5,419521E-12	1,526367	-0,001537
1127,000000	1,082839E-10	1,526855	-0,002070
1128,000000	4,244978E-10	1,527344	-0,002398
1129,000000	1,164524E-10	1,527832	-0,003744
1130,000000	7,561956E-11	1,528320	-0,003570
1131,000000	4,253159E-11	1,528809	-0,004916
1132,000000	3,926037E-11	1,529297	-0,006010
1133,000000	1,068084E-10	1,529785	-0,005998
1134,000000	1,885693E-10	1,530273	-0,005591
1135,000000	1,603295E-10	1,530762	-0,008175
1136,000000	8,137992E-11	1,531250	-0,009131
1137,000000	3,314539E-10	1,531738	-0,007911
1138,000000	2,325054E-10	1,532227	-0,009508
1139,000000	1,550227E-10	1,532715	-0,010118
1140,000000	1,412906E-10	1,533203	-0,009490
1141,000000	2,326174E-10	1,533691	-0,011194
1142,000000	4,083402E-11	1,534180	-0,012247
1143,000000	1,280876E-10	1,534668	-0,011093
1144,000000	2,334637E-10	1,535156	-0,011930
1145,000000	2,222624E-11	1,535645	-0,012414
1146,000000	2,499971E-10	1,536133	-0,012695
1147,000000	4,353232E-12	1,536621	-0,014369
1148,000000	3,263044E-10	1,537109	-0,013383
1149,000000	2,310063E-10	1,537598	-0,012833
1150,000000	2,760435E-10	1,538086	-0,015607
1151,000000	2,838088E-10	1,538574	-0,013915
1152,000000	5,475805E-11	1,539062	-0,014758
1153,000000	1,165868E-10	1,539551	-0,015224
1154,000000	4,846178E-11	1,540039	-0,015834
1155,000000	2,188815E-10	1,540527	-0,017036
1156,000000	1,933664E-10	1,541016	-0,015780
1157,000000	1,449118E-10	1,541504	-0,015583
1158,000000	6,527849E-11	1,541992	-0,016917
1159,000000	2,427272E-11	1,542480	-0,016576
1160,000000	2,302463E-11	1,542969	-0,016432
1161,000000	5,702277E-11	1,543457	-0,017180
1162,000000	1,661971E-10	1,543945	-0,017012
1163,000000	1,871382E-10	1,544434	-0,016223
1164,000000	1,005607E-10	1,544922	-0,017150
1165,000000	8,445710E-11	1,545410	-0,015906
1166,000000	3,052307E-11	1,545898	-0,015386
1167,000000	1,688512E-10	1,546387	-0,016582
1168,000000	1,574474E-10	1,546875	-0,017509
1169,000000	3,194227E-10	1,547363	-0,015673
1170,000000	1,237533E-10	1,547852	-0,016642
1171,000000	2,618759E-10	1,548340	-0,016396
1172,000000	3,244767E-11	1,548828	-0,016235
1173,000000	2,603740E-10	1,549316	-0,017299
1174,000000	6,612524E-11	1,549805	-0,015416
1175,000000	7,229894E-11	1,550293	-0,015595
1176,000000	1,123638E-10	1,550781	-0,014890
1177,000000	1,061847E-11	1,551270	-0,015721
1178,000000	5,071348E-10	1,551758	-0,014776
1179,000000	8,897605E-11	1,552246	-0,015123
1180,000000	7,698676E-11	1,552734	-0,015093
1181,000000	1,617437E-10	1,553223	-0,015009
1182,000000	2,091822E-10	1,553711	-0,014208
1183,000000	3,230554E-12	1,554199	-0,013556
1184,000000	1,950172E-10	1,554687	-0,012940
1185,000000	1,109345E-10	1,555176	-0,012575
1186,000000	4,783270E-11	1,555664	-0,013018
1187,000000	5,046210E-11	1,556152	-0,012922
1188,000000	8,339136E-11	1,556641	-0,012253
1189,000000	6,541772E-11	1,557129	-0,011236
1190,000000	3,444903E-11	1,557617	-0,011547
1191,000000	6,323566E-10	1,558105	-0,010483
1192,000000	1,268008E-10	1,558594	-0,009807
1193,000000	2,120694E-10	1,559082	-0,010327
1194,000000	1,294939E-10	1,559570	-0,009221
1195,000000	1,288296E-10	1,560059	-0,008450
1196,000000	2,564470E-10	1,560547	-0,008539
1197,000000	3,441291E-12	1,561035	-0,007170
1198,000000	2,525058E-12	1,561523	-0,007242
1199,000000	6,232758E-10	1,562012	-0,005932
1200,000000	7,793874E-11	1,562500	-0,006554
1201,000000	5,120416E-10	1,562988	-0,005687
1202,000000	6,680958E-10	1,563477	-0,003762
1203,000000	2,709904E-10	1,563965	-0,004354
1204,000000	8,107119E-11	1,564453	-0,003714
1205,000000	7,098429E-12	1,564941	-0,003134
1206,000000	4,073819E-10	1,565430	-0,003152
1207,000000	2,546542E-10	1,565918	-0,000467
1208,000000	1,228652E-11	1,566406	-0,001406
1209,000000	2,493812E-10	1,566895	-0,001083
1210,000000	1,065456E-10	1,567383	-0,000371
1211,000000	2,706691E-10	1,567871	0,000370
1212,000000	3,130991E-10	1,568359	0,002032
1213,000000	6,187336E-12	1,568848	0,001614
1214,000000	4,350609E-10	1,569336	0,003641
1215,000000	2,485841E-10	1,569824	0,003216
1216,000000	5,847298E-10	1,570312	0,002876
1217,000000	5,162146E-11	1,570801	0,004275
1218,000000	6,101023E-11	1,571289	0,005381
1219,000000	1,960873E-11	1,571777	0,006075
1220,000000	6,355602E-11	1,572266	0,007779
1221,000000	2,743696E-10	1,572754	0,007223
1222,000000	4,160502E-11	1,573242	0,008120
1223,000000	2,062256E-10	1,573730	0,008939
1224,000000	4,936644E-10	1,574219	0,008143
1225,000000	2,189255E-10	1,574707	0,009949
1226,000000	1,285838E-10	1,575195	0,008753
1227,000000	1,557607E-10	1,575684	0,010643
1228,000000	3,209980E-10	1,576172	0,011564
1229,000000	3,374464E-10	1,576660	0,012000
1230,000000	4,644792E-12	1,577148	0,012239
1231,000000	1,141835E-11	1,577637	0,012766
1232,000000	3,348519E-10	1,578125	0,014231
1233,000000	1,915840E-10	1,578613	0,013746
1234,000000	8,066281E-11	1,579102	0,013459
1235,000000	1,206274E-11	1,579590	0,014255
1236,000000	5,112814E-10	1,580078	0,016007
1237,000000	6,520111E-12	1,580566	0,016102
1238,000000	1,141446E-10	1,581055	0,017178
1239,000000	9,513144E-11	1,581543	0,016880
1240,000000	3,183838E-10	1,582031	0,017292
1241,000000	3,025913E-10	1,582520	0,017842
1242,000000	3,638235E-11	1,583008	0,018398
1243,000000	1,788630E-10	1,583496	0,017645
1244,000000	5,002399E-11	1,583984	0,017753
1245,000000	5,871176E-11	1,584473	0,018344
1246,000000	5,104493E-10	1,584961	0,018512
1247,000000	2,980754E-11	1,585449	0,019475
1248,000000	2,567561E-10	1,585937	0,018554
1249,000000	7,918539E-10	1,586426	0,019086
1250,000000	2,883500E-11	1,586914	0,019756
1251,000000	9,017849E-11	1,587402	0,019947
1252,000000	3,122524E-11	1,587891	0,020079
1253,000000	1,310377E-10	1,588379	0,019774
1254,000000	6,649973E-11	1,588867	0,020228
1255,000000	1,678421E-10	1,589355	0,019170
1256,000000	1,652591E-11	1,589844	0,019050
1257,000000	4,687396E-11	1,590332	0,018398
1258,000000	2,590865E-10	1,590820	0,019780
1259,000000	3,940703E-10	1,591309	0,021191
1260,000000	2,998881E-10	1,591797	0,020437
1261,000000	3,857912E-11	1,592285	0,019409
1262,000000	2,727113E-10	1,592773	0,021143
1263,000000	1,063184E-10	1,593262	0,019265
1264,000000	2,474326E-10	1,593750	0,020055
1265,000000	3,099399E-11	1,594238	0,021442
1266,000000	3,373156E-10	1,594727	0,019271
1267,000000	7,439741E-11	1,595215	0,018877
1268,000000	3,418840E-11	1,595703	0,019881
1269,000000	2,404560E-10	1,596191	0,019164
1270,000000	1,431680E-10	1,596680	0,018249
1271,000000	5,827315E-11	1,597168	0,018356
1272,000000	3,020661E-11	1,597656	0,017549
1273,000000	5,000478E-11	1,598145	0,018297
1274,000000	1,647641E-10	1,598633	0,017376
1275,000000	7,490018E-11	1,599121	0,017352
1276,000000	2,656210E-10	1,599609	0,016634
1277,000000	5,484597E-11	1,600098	0,016646
1278,000000	1,572797E-10	1,600586	0,016383
1279,000000	2,670263E-10	1,601074	0,015749
1280,000000	1,034393E-10	1,601562	0,014577
1281,000000	1,573792E-11	1,602051	0,015337
1282,000000	6,778429E-11	1,602539	0,014195
1283,000000	5,758832E-11	1,603027	0,015684
1284,000000	3,239719E-11	1,603516	0,014272
1285,000000	2,403448E-11	1,604004	0,012897
1286,000000	2,000727E-10	1,604492	0,012742
1287,000000	2,634927E-12	1,604980	0,011635
1288,000000	1,020772E-10	1,605469	0,011671
1289,000000	3,358547E-12	1,605957	0,010356
1290,000000	1,122338E-10	1,606445	0,008568
1291,000000	1,220194E-10	1,606934	0,007976
1292,000000	8,985168E-11	1,607422	0,006840
1293,000000	3,209403E-10	1,607910	0,007438
1294,000000	5,342814E-11	1,608398	0,008753
1295,000000	7,796669E-11	1,608887	0,007145
1296,000000	8,191568E-11	1,609375	0,007522
1297,000000	8,032626E-10	1,609863	0,006409
1298,000000	5,404862E-10	1,610352	0,006134
1299,000000	1,554607E-11	1,610840	0,004628
1300,000000	3,277450E-10	1,611328	0,004388
1301,000000	3,847760E-11	1,611816	0,004113
1302,000000	2,920862E-10	1,612305	0,004179
1303,000000	1,504849E-11	1,612793	0,002427
1304,000000	5,851195E-10	1,613281	0,002032
1305,000000	7,652639E-12	1,613770	0,000292
1306,000000	4,175953E-10	1,614258	0,000460
1307,000000	1,198954E-10	1,614746	0,000747
1308,000000	2,860922E-11	1,615234	-0,000605
1309,000000	1,431263E-10	1,615723	-0,000856
1310,000000	8,614732E-12	1,616211	-0,001101
1311,000000	1,442640E-10	1,616699	-0,002500
1312,000000	6,070798E-11	1,617187	-0,003182
1313,000000	7,964357E-10	1,617676	-0,002990
1314,000000	7,895519E-10	1,618164	-0,004754
1315,000000	5,820427E-11	1,618652	-0,005406
1316,000000	1,374237E-10	1,619141	-0,005017
1317,000000	4,412534E-11	1,619629	-0,005573
1318,000000	1,526886E-10	1,620117	-0,006787
1319,000000	7,486889E-10	1,620605	-0,006973
1320,000000	5,101315E-11	1,621094	-0,007379
1321,000000	2,510884E-11	1,621582	-0,007272
1322,000000	3,301632E-11	1,622070	-0,009006
1323,000000	6,451453E-11	1,622559	-0,009036
1324,000000	1,261742E-12	1,623047	-0,009562
1325,000000	1,383412E-10	1,623535	-0,009747
1326,000000	1,126996E-10	1,624023	-0,009681
1327,000000	7,062168E-12	1,624512	-0,010232
1328,000000	6,636612E-11	1,625000	-0,009640
1329,000000	6,519347E-11	1,625488	-0,010997
1330,000000	1,878978E-10	1,625977	-0,012139
1331,000000	3,605638E-10	1,626465	-0,012157
1332,000000	1,439635E-10	1,626953	-0,012498
1333,000000	2,733508E-10	1,627441	-0,012982
1334,000000	6,153422E-10	1,627930	-0,012288
1335,000000	9,623552E-13	1,628418	-0,012851
1336,000000	1,270126E-10	1,628906	-0,013987
1337,000000	3,320909E-10	1,629395	-0,014304
1338,000000	4,806284E-11	1,629883	-0,013795
1339,000000	6,583917E-11	1,630371	-0,014860
1340,000000	3,483317E-10	1,630859	-0,013801
1341,000000	2,995972E-10	1,631348	-0,014507
1342,000000	5,611868E-10	1,631836	-0,014967
1343,000000	2,936201E-10	1,632324	-0,015087
1344,000000	4,987045E-10	1,632812	-0,015470
1345,000000	6,423660E-11	1,633301	-0,015589
1346,000000	1,208276E-11	1,633789	-0,015488
1347,000000	4,671659E-10	1,634277	-0,015446
1348,000000	1,002274E-10	1,634766	-0,015440
1349,000000	3,846783E-10	1,635254	-0,016175
1350,000000	9,621731E-11	1,635742	-0,016139
1351,000000	7,975209E-11	1,636230	-0,015195
1352,000000	2,386462E-10	1,636719	-0,015978
1353,000000	6,732064E-11	1,637207	-0,015954
1354,000000	1,319156E-10	1,637695	-0,015464
1355,000000	7,418551E-11	1,638184	-0,015422
1356,000000	5,707580E-11	1,638672	-0,015087
1357,000000	1,234548E-11	1,639160	-0,015129
1358,000000	3,493687E-10	1,639648	-0,015529
1359,000000	2,567658E-11	1,640137	-0,014710
1360,000000	6,891380E-11	1,640625	-0,014943
1361,000000	2,412326E-10	1,641113	-0,014435
1362,000000	6,318348E-11	1,641602	-0,014543
1363,000000	4,284740E-10	1,642090	-0,014070
1364,000000	1,703963E-11	1,642578	-0,013987
1365,000000	4,132710E-11	1,643066	-0,013526
1366,000000	1,509993E-11	1,643555	-0,013084
1367,000000	5,917353E-11	1,644043	-0,011948
1368,000000	1,343151E-10	1,644531	-0,012336
1369,000000	4,831792E-11	1,645020	-0,011409
1370,000000	6,122454E-11	1,645508	-0,012025
1371,000000	3,641798E-10	1,645996	-0,011738
1372,000000	2,510024E-10	1,646484	-0,011003
1373,000000	2,425398E-10	1,646973	-0,010465
1374,000000	5,300445E-10	1,647461	-0,009095
1375,000000	6,612520E-11	1,647949	-0,009454
1376,000000	9,272926E-11	1,648437	-0,009089
1377,000000	1,585712E-10	1,648926	-0,007092
1378,000000	1,151459E-10	1,649414	-0,007146
1379,000000	1,855576E-10	1,649902	-0,006913
1380,000000	2,682646E-10	1,650391	-0,006578
1381,000000	2,705708E-10	1,650879	-0,006488
1382,000000	1,038046E-10	1,651367	-0,004922
1383,000000	5,880976E-11	1,651855	-0,004210
1384,000000	1,839634E-10	1,652344	-0,004103
1385,000000	2,519900E-10	1,652832	-0,003839
1386,000000	5,471679E-11	1,653320	-0,004437
1387,000000	6,390000E-11	1,653809	-0,002697
1388,000000	1,491116E-10	1,654297	-0,001717
1389,000000	7,442134E-12	1,654785	-0,001041
1390,000000	1,133543E-10	1,655273	-0,001035
1391,000000	2,435343E-10	1,655762	0,000430
1392,000000	1,441753E-11	1,656250	0,000980
1393,000000	2,628915E-11	1,656738	0,001004
1394,000000	2,755917E-10	1,657227	0,001064
1395,000000	1,041167E-10	1,657715	0,001530
1396,000000	6,610090E-10	1,658203	0,003438
1397,000000	1,840959E-10	1,658691	0,002876
1398,000000	1,181438E-10	1,659180	0,004574
1399,000000	2,957062E-10	1,659668	0,003623
1400,000000	4,310753E-10	1,660156	0,004119
1401,000000	3,591285E-10	1,660645	0,003838
1402,000000	1,270383E-10	1,661133	0,005351
1403,000000	6,804487E-12	1,661621	0,005650
1404,000000	5,734773E-11	1,662109	0,006224
1405,000000	2,058735E-10	1,662598	0,006864
1406,000000	8,051060E-11	1,663086	0,007438
1407,000000	5,785808E-11	1,663574	0,007510
1408,000000	8,644420E-11	1,664062	0,008383
1409,000000	2,100315E-10	1,664551	0,008209
1410,000000	1,325498E-10	1,665039	0,009058
1411,000000	7,430324E-11	1,665527	0,010087
1412,000000	1,351972E-10	1,666016	0,010308
1413,000000	2,287272E-11	1,666504	0,011402
1414,000000	2,478214E-10	1,666992	0,011151
1415,000000	5,330501E-10	1,667480	0,011665
1416,000000	8,341103E-11	1,667969	0,012323
1417,000000	2,190532E-10	1,668457	0,013322
1418,000000	1,975770E-10	1,668945	0,014015
1419,000000	1,561819E-10	1,669434	0,014135
1420,000000	1,110971E-10	1,669922	0,013435
1421,000000	2,651957E-12	1,670410	0,014751
1422,000000	3,919648E-11	1,670898	0,015510
1423,000000	2,469446E-10	1,671387	0,014667
1424,000000	6,942663E-11	1,671875	0,015863
1425,000000	1,034510E-9	1,672363	0,016868
1426,000000	5,785266E-11	1,672852	0,015911
1427,000000	2,861899E-10	1,673340	0,016078
1428,000000	3,077096E-10	1,673828	0,017071
1429,000000	1,375813E-10	1,674316	0,016497
1430,000000	4,321274E-11	1,674805	0,017190
1431,000000	7,111780E-11	1,675293	0,017083
1432,000000	2,860847E-10	1,675781	0,017513
1433,000000	1,200225E-11	1,676270	0,016826
1434,000000	2,876988E-12	1,676758	0,017818
1435,000000	4,188499E-10	1,677246	0,017268
1436,000000	5,378380E-11	1,677734	0,018028
1437,000000	1,007253E-10	1,678223	0,018171
1438,000000	4,233083E-11	1,678711	0,017818
1439,000000	6,565663E-11	1,679199	0,018799
1440,000000	5,330429E-11	1,679687	0,018339
1441,000000	9,885939E-11	1,680176	0,017663
1442,000000	2,671875E-11	1,680664	0,017908
1443,000000	9,872145E-11	1,681152	0,019851
1444,000000	4,339092E-11	1,681641	0,019235
1445,000000	2,044008E-11	1,682129	0,018046
1446,000000	8,281531E-12	1,682617	0,016796
1447,000000	7,309719E-10	1,683105	0,017603
1448,000000	2,612393E-10	1,683594	0,016742
1449,000000	1,908101E-10	1,684082	0,016993
1450,000000	1,018344E-10	1,684570	0,017190
1451,000000	6,385232E-10	1,685059	0,017184
1452,000000	9,876686E-10	1,685547	0,017268
1453,000000	1,088478E-10	1,686035	0,017812
1454,000000	1,561969E-10	1,686523	0,017155
1455,000000	3,066172E-10	1,687012	0,015684
1456,000000	3,600928E-10	1,687500	0,016270
1457,000000	9,459407E-11	1,687988	0,017196
1458,000000	7,950301E-11	1,688477	0,014745
1459,000000	6,528952E-11	1,688965	0,016347
1460,000000	2,266575E-11	1,689453	0,014912
1461,000000	3,414034E-10	1,689941	0,015145
1462,000000	3,527161E-10	1,690430	0,014494
1463,000000	8,349472E-13	1,690918	0,014344
1464,000000	1,708948E-11	1,691406	0,014129
1465,000000	6,666765E-11	1,691895	0,012437
1466,000000	2,052779E-10	1,692383	0,012485
1467,000000	1,448941E-10	1,692871	0,011498
1468,000000	1,292832E-10	1,693359	0,011444
1469,000000	2,356519E-10	1,693848	0,009979
1470,000000	1,467620E-12	1,694336	0,010302
1471,000000	5,492857E-10	1,694824	0,009788
1472,000000	1,086864E-10	1,695312	0,010069
1473,000000	8,227089E-13	1,695801	0,007318
1474,000000	8,015596E-11	1,696289	0,007731
1475,000000	4,763559E-11	1,696777	0,007468
1476,000000	3,247349E-10	1,697266	0,007282
1477,000000	1,923456E-10	1,697754	0,006768
1478,000000	5,473108E-11	1,698242	0,004699
1479,000000	1,271536E-10	1,698730	0,004879
1480,000000	2,292371E-11	1,699219	0,005219
1481,000000	8,903995E-13	1,699707	0,004651
1482,000000	1,046871E-10	1,700195	0,003210
1483,000000	9,410693E-11	1,700684	0,003073
1484,000000	1,385169E-10	1,701172	0,002690
1485,000000	4,916462E-11	1,701660	0,002146
1486,000000	1,093140E-10	1,702148	0,001572
1487,000000	1,719271E-11	1,702637	0,000908
1488,000000	9,453556E-11	1,703125	0,000633
1489,000000	6,499419E-11	1,703613	-0,000407
1490,000000	5,792631E-12	1,704102	-0,000431
1491,000000	1,884819E-11	1,704590	-0,000168
1492,000000	1,570279E-11	1,705078	-0,001167
1493,000000	3,400167E-10	1,705566	-0,001800
1494,000000	1,252634E-10	1,706055	-0,001950
1495,000000	6,031811E-11	1,706543	-0,003534
1496,000000	2,849944E-10	1,707031	-0,003971
1497,000000	1,099963E-10	1,707520	-0,004784
1498,000000	2,637511E-11	1,708008	-0,003768
1499,000000	2,058562E-10	1,708496	-0,003929
1500,000000	2,678220E-11	1,708984	-0,006195
1501,000000	1,193584E-10	1,709473	-0,005884
1502,000000	6,838053E-12	1,709961	-0,006321
1503,000000	5,554062E-11	1,710449	-0,007044
1504,000000	2,304481E-10	1,710937	-0,006823
1505,000000	1,516310E-10	1,711426	-0,007601
1506,000000	5,174418E-11	1,711914	-0,009927
1507,000000	1,342154E-11	1,712402	-0,008163
1508,000000	2,651517E-11	1,712891	-0,007314
1509,000000	3,903461E-10	1,713379	-0,009998
1510,000000	1,584264E-11	1,713867	-0,010812
1511,000000	1,488019E-10	1,714355	-0,009903
1512,000000	1,814621E-11	1,714844	-0,010190
1513,000000	7,034225E-11	1,715332	-0,010937
1514,000000	1,933343E-10	1,715820	-0,012378
1515,000000	2,771579E-11	1,716309	-0,011726
1516,000000	3,024362E-12	1,716797	-0,011356
1517,000000	2,842218E-10	1,717285	-0,011936
1518,000000	1,193894E-10	1,717773	-0,011768
1519,000000	1,631806E-10	1,718262	-0,012725
1520,000000	1,372299E-10	1,718750	-0,012946
1521,000000	2,382242E-10	1,719238	-0,013066
1522,000000	3,329495E-11	1,719727	-0,013383
1523,000000	1,965698E-10	1,720215	-0,014034
1524,000000	1,701307E-11	1,720703	-0,013646
1525,000000	5,589453E-11	1,721191	-0,013837
1526,000000	3,386729E-10	1,721680	-0,013150
1527,000000	3,802874E-11	1,722168	-0,014764
1528,000000	4,507349E-12	1,722656	-0,014489
1529,000000	2,038942E-10	1,723145	-0,015015
1530,000000	5,768600E-11	1,723633	-0,014106
1531,000000	2,063529E-11	1,724121	-0,013646
1532,000000	1,755659E-10	1,724609	-0,013753
1533,000000	5,909344E-10	1,725098	-0,014172
1534,000000	2,783847E-11	1,725586	-0,015003
1535,000000	5,341173E-11	1,726074	-0,014310
1536,000000	5,344281E-10	1,726562	-0,012970
1537,000000	1,015984E-10	1,727051	-0,014268
1538,000000	4,627565E-11	1,727539	-0,013443
1539,000000	6,978706E-12	1,728027	-0,013203
1540,000000	5,700281E-11	1,728516	-0,012731
1541,000000	3,538479E-11	1,729004	-0,014005
1542,000000	1,463169E-11	1,729492	-0,012145
1543,000000	3,863952E-11	1,729980	-0,012629
1544,000000	3,854611E-11	1,730469	-0,013849
1545,000000	4,052756E-10	1,730957	-0,012468
1546,000000	1,533599E-10	1,731445	-0,012348
1547,000000	4,021398E-11	1,731934	-0,011021
1548,000000	3,830239E-11	1,732422	-0,010991
1549,000000	1,338432E-10	1,732910	-0,011732
1550,000000	5,259515E-10	1,733398	-0,010686
1551,000000	3,477325E-12	1,733887	-0,010991
1552,000000	1,874322E-10	1,734375	-0,010788
1553,000000	3,259073E-10	1,734863	-0,009412
1554,000000	3,615973E-10	1,735352	-0,009412
1555,000000	1,005180E-9	1,735840	-0,009765
1556,000000	2,289035E-10	1,736328	-0,008886
1557,000000	2,928833E-10	1,736816	-0,008414
1558,000000	1,991507E-10	1,737305	-0,007995
1559,000000	5,103346E-11	1,737793	-0,007762
1560,000000	2,614800E-12	1,738281	-0,007666
1561,000000	1,817596E-10	1,738770	-0,006189
1562,000000	3,556576E-10	1,739258	-0,005400
1563,000000	3,595858E-10	1,739746	-0,005286
1564,000000	7,739732E-11	1,740234	-0,005920
1565,000000	3,832386E-10	1,740723	-0,003230
1566,000000	6,101963E-10	1,741211	-0,002626
1567,000000	7,340590E-10	1,741699	-0,003367
1568,000000	2,914913E-11	1,742187	-0,001794
1569,000000	5,043131E-10	1,742676	-0,002309
1570,000000	1,098338E-9	1,743164	-0,000933
1571,000000	1,773549E-10	1,743652	-0,001244
1572,000000	2,487345E-10	1,744141	-0,000383
1573,000000	4,436785E-10	1,744629	-0,000413
1574,000000	6,278612E-11	1,745117	0,000173
1575,000000	1,422428E-10	1,745605	0,002068
1576,000000	2,312068E-10	1,746094	0,001704
1577,000000	5,333069E-10	1,746582	0,002134
1578,000000	1,907437E-10	1,747070	0,001255
1579,000000	4,016399E-12	1,747559	0,002822
1580,000000	2,373940E-10	1,748047	0,003922
1581,000000	3,336392E-10	1,748535	0,004281
1582,000000	1,849254E-10	1,749023	0,004352
1583,000000	4,676807E-11	1,749512	0,004388
1584,000000	4,841917E-10	1,750000	0,005919
1585,000000	1,032059E-11	1,750488	0,006858
1586,000000	4,535357E-10	1,750977	0,007055
1587,000000	1,136042E-11	1,751465	0,006888
1588,000000	1,922171E-10	1,751953	0,007139
1589,000000	1,457744E-11	1,752441	0,007868
1590,000000	1,358458E-10	1,752930	0,008413
1591,000000	8,888758E-11	1,753418	0,008532
1592,000000	7,086923E-12	1,753906	0,008879
1593,000000	4,015429E-10	1,754395	0,009573
1594,000000	2,278464E-10	1,754883	0,010003
1595,000000	4,575814E-11	1,755371	0,010595
1596,000000	5,574292E-10	1,755859	0,011313
1597,000000	5,517846E-10	1,756348	0,010733
1598,000000	1,618693E-10	1,756836	0,011839
1599,000000	7,611669E-11	1,757324	0,012407
1600,000000	5,062976E-11	1,757812	0,013537
1601,000000	2,926308E-10	1,758301	0,013035
1602,000000	1,739659E-10	1,758789	0,013268
1603,000000	1,101372E-10	1,759277	0,014123
1604,000000	7,497988E-11	1,759766	0,013669
1605,000000	5,116301E-11	1,760254	0,014727
1606,000000	2,617715E-11	1,760742	0,014900
1607,000000	4,890583E-10	1,761230	0,015092
1608,000000	2,087365E-10	1,761719	0,015570
1609,000000	4,150571E-12	1,762207	0,015875
1610,000000	6,153765E-12	1,762695	0,016455
1611,000000	4,352255E-11	1,763184	0,016132
1612,000000	2,555000E-10	1,763672	0,015731
1613,000000	1,068084E-10	1,764160	0,015803
1614,000000	6,836008E-10	1,764648	0,015917
1615,000000	7,871912E-11	1,765137	0,017878
1616,000000	1,138801E-10	1,765625	0,015026
1617,000000	2,426862E-11	1,766113	0,016347
1618,000000	5,863871E-11	1,766602	0,016652
1619,000000	1,439711E-10	1,767090	0,016598
1620,000000	1,650452E-10	1,767578	0,016569
1621,000000	7,577551E-11	1,768066	0,017101
1622,000000	4,762621E-11	1,768555	0,016222
1623,000000	1,681029E-10	1,769043	0,017125
1624,000000	9,623116E-12	1,769531	0,017047
1625,000000	3,446558E-11	1,770020	0,017340
1626,000000	4,819091E-11	1,770508	0,016048
1627,000000	2,222815E-11	1,770996	0,017155
1628,000000	1,231321E-10	1,771484	0,016604
1629,000000	1,764221E-11	1,771973	0,016479
1630,000000	6,189965E-11	1,772461	0,016587
1631,000000	1,587509E-10	1,772949	0,015504
1632,000000	1,409705E-10	1,773437	0,016001
1633,000000	3,406431E-11	1,773926	0,015708
1634,000000	4,513336E-10	1,774414	0,015516
1635,000000	1,261664E-11	1,774902	0,016162
1636,000000	2,103108E-10	1,775391	0,015116
1637,000000	1,400173E-10	1,775879	0,014984
1638,000000	9,388161E-10	1,776367	0,015881
1639,000000	7,703696E-11	1,776855	0,014548
1640,000000	2,153365E-10	1,777344	0,015791
1641,000000	5,510464E-11	1,777832	0,014733
1642,000000	7,014770E-11	1,778320	0,014667
1643,000000	3,240921E-11	1,778809	0,012903
1644,000000	3,088822E-11	1,779297	0,012772
1645,000000	4,528390E-11	1,779785	0,012879
1646,000000	3,815238E-11	1,780273	0,011600
1647,000000	1,133165E-10	1,780762	0,012688
1648,000000	2,245195E-10	1,781250	0,010607
1649,000000	2,199406E-11	1,781738	0,010159
1650,000000	2,805540E-11	1,782227	0,009752
1651,000000	1,126266E-10	1,782715	0,010481
1652,000000	3,604063E-10	1,783203	0,010595
1653,000000	9,802390E-11	1,783691	0,009166
1654,000000	3,057920E-10	1,784180	0,009118
1655,000000	4,380656E-10	1,784668	0,008460
1656,000000	8,768246E-11	1,785156	0,007833
1657,000000	2,128296E-10	1,785645	0,008155
1658,000000	9,237748E-10	1,786133	0,007259
1659,000000	3,264269E-11	1,786621	0,008634
1660,000000	3,495356E-10	1,787109	0,006966
1661,000000	1,886386E-10	1,787598	0,005776
1662,000000	1,005230E-11	1,788086	0,005614
1663,000000	2,975522E-11	1,788574	0,004514
1664,000000	1,300691E-10	1,789062	0,003922
1665,000000	2,396383E-10	1,789551	0,004514
1666,000000	1,007346E-11	1,790039	0,003778
1667,000000	2,376061E-10	1,790527	0,002941
1668,000000	4,141486E-11	1,791016	0,001859
1669,000000	3,766724E-11	1,791504	0,002272
1670,000000	7,940005E-11	1,791992	0,001536
1671,000000	3,582740E-12	1,792480	0,000221
1672,000000	1,473519E-10	1,792969	-0,000533
1673,000000	1,286373E-10	1,793457	-0,000569
1674,000000	6,043154E-11	1,793945	-0,001513
1675,000000	1,640744E-10	1,794434	-0,001860
1676,000000	6,070338E-12	1,794922	-0,002075
1677,000000	2,540055E-10	1,795410	-0,002841
1678,000000	1,795070E-10	1,795898	-0,002398
1679,000000	7,703015E-11	1,796387	-0,003032
1680,000000	4,870230E-11	1,796875	-0,003558
1681,000000	9,991216E-11	1,797363	-0,004593
1682,000000	8,563290E-10	1,797852	-0,004611
1683,000000	1,689584E-10	1,798340	-0,005950
1684,000000	2,633654E-11	1,798828	-0,005514
1685,000000	8,851706E-10	1,799316	-0,005460
1686,000000	4,322343E-11	1,799805	-0,005777
1687,000000	9,136039E-11	1,800293	-0,006512
1688,000000	2,071968E-10	1,800781	-0,007463
1689,000000	2,075767E-12	1,801270	-0,007900
1690,000000	9,081312E-11	1,801758	-0,008802
1691,000000	5,264150E-10	1,802246	-0,009382
1692,000000	6,492297E-10	1,802734	-0,007822
1693,000000	1,201751E-10	1,803223	-0,008384
1694,000000	4,418917E-10	1,803711	-0,010088
1695,000000	9,775619E-10	1,804199	-0,009891
1696,000000	4,157788E-10	1,804687	-0,009897
1697,000000	2,920401E-11	1,805176	-0,010465
1698,000000	2,763291E-10	1,805664	-0,010937
1699,000000	6,406976E-12	1,806152	-0,010596
1700,000000	4,197998E-11	1,806641	-0,010704
1701,000000	9,129570E-10	1,807129	-0,011499
1702,000000	3,929804E-11	1,807617	-0,011655
1703,000000	3,858244E-11	1,808105	-0,011816
1704,000000	2,899976E-10	1,808594	-0,011750
1705,000000	1,063836E-9	1,809082	-0,011792
1706,000000	4,889787E-11	1,809570	-0,011649
1707,000000	9,626903E-11	1,810059	-0,011499
1708,000000	6,395404E-10	1,810547	-0,012683
1709,000000	6,744056E-10	1,811035	-0,012288
1710,000000	5,747542E-11	1,811523	-0,011463
1711,000000	2,280554E-10	1,812012	-0,012492
1712,000000	2,428443E-10	1,812500	-0,012581
1713,000000	1,817377E-10	1,812988	-0,012641
1714,000000	6,987574E-11	1,813477	-0,012593
1715,000000	1,366225E-10	1,813965	-0,011469
1716,000000	6,257837E-11	1,814453	-0,013562
1717,000000	1,445484E-10	1,814941	-0,011738
1718,000000	1,283960E-10	1,815430	-0,011392
1719,000000	1,109678E-10	1,815918	-0,011774
1720,000000	1,359557E-10	1,816406	-0,012306
1721,000000	2,474973E-10	1,816895	-0,011601
1722,000000	2,226950E-11	1,817383	-0,013437
1723,000000	9,286524E-12	1,817871	-0,011822
1724,000000	4,679058E-11	1,818359	-0,011033
1725,000000	3,174860E-11	1,818848	-0,010614
1726,000000	5,529604E-10	1,819336	-0,011643
1727,000000	2,655088E-10	1,819824	-0,011356
1728,000000	9,455616E-11	1,820312	-0,011242
1729,000000	5,508258E-10	1,820801	-0,010985
1730,000000	8,500054E-11	1,821289	-0,010172
1731,000000	8,066559E-11	1,821777	-0,010453
1732,000000	1,903795E-10	1,822266	-0,009777
1733,000000	1,765813E-10	1,822754	-0,009251
1734,000000	2,206888E-11	1,823242	-0,008294
1735,000000	4,402247E-10	1,823730	-0,008874
1736,000000	2,313292E-10	1,824219	-0,007923
1737,000000	2,459797E-10	1,824707	-0,008438
1738,000000	3,406106E-10	1,825195	-0,008145
1739,000000	3,614799E-11	1,825684	-0,006775
1740,000000	1,353855E-11	1,826172	-0,006871
1741,000000	2,434790E-10	1,826660	-0,006399
1742,000000	2,390308E-10	1,827148	-0,005992
1743,000000	8,406440E-11	1,827637	-0,005932
1744,000000	9,092864E-11	1,828125	-0,005364
1745,000000	3,181544E-11	1,828613	-0,004641
1746,000000	4,214628E-10	1,829102	-0,004659
1747,000000	1,140049E-10	1,829590	-0,003744
1748,000000	2,817578E-10	1,830078	-0,004073
1749,000000	3,939251E-10	1,830566	-0,004545
1750,000000	7,007516E-12	1,831055	-0,003529
1751,000000	2,933698E-10	1,831543	-0,001866
1752,000000	8,015349E-11	1,832031	-0,001663
1753,000000	2,102252E-10	1,832520	-0,000449
1754,000000	1,738733E-10	1,833008	-0,000425
1755,000000	4,581870E-12	1,833496	0,000878
1756,000000	8,483478E-11	1,833984	0,001112
1757,000000	1,043469E-10	1,834473	0,001596
1758,000000	2,621533E-11	1,834961	0,001853
1759,000000	1,351521E-10	1,835449	0,002361
1760,000000	3,760305E-10	1,835937	0,002618
1761,000000	1,248377E-10	1,836426	0,002971
1762,000000	1,773409E-11	1,836914	0,003641
1763,000000	1,749334E-11	1,837402	0,003952
1764,000000	2,845828E-12	1,837891	0,004018
1765,000000	1,034146E-10	1,838379	0,004711
1766,000000	2,601123E-10	1,838867	0,005734
1767,000000	4,847542E-11	1,839355	0,005536
1768,000000	5,504001E-10	1,839844	0,006523
1769,000000	1,334898E-10	1,840332	0,006960
1770,000000	7,811435E-11	1,840820	0,006960
1771,000000	3,937693E-11	1,841309	0,006971
1772,000000	1,524227E-10	1,841797	0,007821
1773,000000	4,154383E-10	1,842285	0,009704
1774,000000	1,103578E-10	1,842773	0,008957
1775,000000	5,861194E-11	1,843262	0,009543
1776,000000	7,615745E-11	1,843750	0,009411
1777,000000	5,189960E-10	1,844238	0,009794
1778,000000	3,019174E-11	1,844727	0,010117
1779,000000	2,194152E-10	1,845215	0,011085
1780,000000	4,574013E-10	1,845703	0,010966
1781,000000	1,964513E-11	1,846191	0,012461
1782,000000	2,042480E-10	1,846680	0,012634
1783,000000	1,345474E-10	1,847168	0,012467
1784,000000	3,775119E-10	1,847656	0,012849
1785,000000	1,591884E-10	1,848145	0,012772
1786,000000	6,016527E-10	1,848633	0,013800
1787,000000	9,604758E-11	1,849121	0,013991
1788,000000	4,962599E-11	1,849609	0,013866
1789,000000	6,874416E-10	1,850098	0,013902
1790,000000	3,490917E-10	1,850586	0,014177
1791,000000	2,496856E-11	1,851074	0,014482
1792,000000	3,886035E-10	1,851562	0,015068
1793,000000	2,452602E-10	1,852051	0,015498
1794,000000	6,288641E-11	1,852539	0,015462
1795,000000	1,623400E-10	1,853027	0,016126
1796,000000	2,164943E-10	1,853516	0,015474
1797,000000	1,543573E-10	1,854004	0,015175
1798,000000	5,070006E-10	1,854492	0,016192
1799,000000	3,793195E-12	1,854980	0,015953
1800,000000	2,872034E-11	1,855469	0,016030
1801,000000	8,274280E-11	1,855957	0,016030
1802,000000	6,835320E-11	1,856445	0,016030
1803,000000	1,945150E-10	1,856934	0,016754
1804,000000	2,844506E-10	1,857422	0,016497
1805,000000	2,889107E-10	1,857910	0,016664
1806,000000	2,957665E-10	1,858398	0,015594
1807,000000	3,069461E-10	1,858887	0,016282
1808,000000	6,727508E-10	1,859375	0,016419
1809,000000	1,196957E-10	1,859863	0,015863
1810,000000	1,731382E-10	1,860352	0,015809
1811,000000	2,005182E-10	1,860840	0,015660
1812,000000	9,972226E-12	1,861328	0,015708
1813,000000	1,682272E-10	1,861816	0,016048
1814,000000	2,455171E-10	1,862305	0,015785
1815,000000	7,555723E-12	1,862793	0,015522
1816,000000	6,169869E-11	1,863281	0,014452
1817,000000	9,726489E-11	1,863770	0,015690
1818,000000	1,245660E-10	1,864258	0,015719
1819,000000	2,662116E-10	1,864746	0,014290
1820,000000	4,879918E-11	1,865234	0,015062
1821,000000	1,661509E-9	1,865723	0,014655
1822,000000	1,257922E-10	1,866211	0,013704
1823,000000	3,082703E-10	1,866699	0,014530
1824,000000	4,824797E-10	1,867187	0,013047
1825,000000	1,121433E-10	1,867676	0,013417
1826,000000	3,015809E-10	1,868164	0,012819
1827,000000	2,802940E-10	1,868652	0,011988
1828,000000	2,632007E-10	1,869141	0,012772
1829,000000	3,499412E-10	1,869629	0,011115
1830,000000	1,190852E-11	1,870117	0,011414
1831,000000	2,181876E-10	1,870605	0,010703
1832,000000	3,421305E-10	1,871094	0,010924
1833,000000	2,426342E-10	1,871582	0,009614
1834,000000	4,165249E-11	1,872070	0,009351
1835,000000	5,168684E-10	1,872559	0,008658
1836,000000	4,698165E-10	1,873047	0,008478
1837,000000	2,687089E-10	1,873535	0,007815
1838,000000	3,706993E-10	1,874023	0,006977
1839,000000	5,013141E-10	1,874512	0,006918
1840,000000	4,373517E-10	1,875000	0,005716
1841,000000	3,026387E-11	1,875488	0,006661
1842,000000	1,189465E-11	1,875977	0,005823
1843,000000	3,518462E-10	1,876465	0,004442
1844,000000	2,862183E-10	1,876953	0,004765
1845,000000	3,421715E-11	1,877441	0,004801
1846,000000	7,569534E-10	1,877930	0,003079
1847,000000	1,514295E-10	1,878418	0,002577
1848,000000	8,662518E-12	1,878906	0,002110
1849,000000	6,674478E-12	1,879395	0,001847
1850,000000	2,107372E-10	1,879883	0,001590
1851,000000	1,044783E-10	1,880371	0,001620
1852,000000	2,081497E-10	1,880859	-0,000593
1853,000000	5,277310E-11	1,881348	-0,000282
1854,000000	2,375062E-11	1,881836	0,000143
1855,000000	3,574533E-10	1,882324	5,321133E-5
1856,000000	2,304024E-11	1,882812	0,001967
1857,000000	1,395918E-10	1,883301	8,310882E-5
1858,000000	2,728909E-11	1,883789	-0,001131
1859,000000	7,604088E-11	1,884277	-0,001705
1860,000000	8,294894E-11	1,884766	-0,002147
1861,000000	1,978884E-9	1,885254	-0,002554
1862,000000	1,515343E-10	1,885742	-0,002871
1863,000000	3,477356E-10	1,886230	-0,003152
1864,000000	2,312810E-10	1,886719	-0,003343
1865,000000	2,528834E-10	1,887207	-0,004043
1866,000000	5,855099E-11	1,887695	-0,003983
1867,000000	2,582621E-10	1,888184	-0,004790
1868,000000	1,366916E-10	1,888672	-0,004689
1869,000000	3,588811E-10	1,889160	-0,006423
1870,000000	1,502091E-10	1,889648	-0,006710
1871,000000	7,608706E-11	1,890137	-0,006112
1872,000000	6,459240E-10	1,890625	-0,007349
1873,000000	1,867765E-10	1,891113	-0,007983
1874,000000	5,668467E-11	1,891602	-0,008139
1875,000000	3,546808E-10	1,892090	-0,007062
1876,000000	7,737724E-10	1,892578	-0,008767
1877,000000	2,231675E-10	1,893066	-0,009137
1878,000000	7,615514E-10	1,893555	-0,008761
1879,000000	5,126976E-10	1,894043	-0,008982
1880,000000	3,113658E-10	1,894531	-0,008683
1881,000000	1,727460E-10	1,895020	-0,011224
1882,000000	8,003701E-11	1,895508	-0,010686
1883,000000	3,981590E-10	1,895996	-0,009891
1884,000000	1,115210E-10	1,896484	-0,010399
1885,000000	3,316580E-10	1,896973	-0,009454
1886,000000	1,488905E-10	1,897461	-0,011344
1887,000000	1,303478E-10	1,897949	-0,010889
1888,000000	2,486970E-10	1,898437	-0,010823
1889,000000	6,372270E-10	1,898926	-0,011224
1890,000000	2,756106E-10	1,899414	-0,010399
1891,000000	1,652135E-10	1,899902	-0,010698
1892,000000	2,040496E-10	1,900391	-0,011954
1893,000000	4,226732E-11	1,900879	-0,011685
1894,000000	4,114960E-10	1,901367	-0,012432
1895,000000	2,715396E-10	1,901855	-0,011744
1896,000000	8,535695E-10	1,902344	-0,012127
1897,000000	3,801943E-10	1,902832	-0,011266
1898,000000	4,803517E-10	1,903320	-0,011248
1899,000000	5,952249E-10	1,903809	-0,011134
1900,000000	7,186364E-10	1,904297	-0,011409
1901,000000	9,140783E-10	1,904785	-0,010955
1902,000000	2,877558E-10	1,905273	-0,010130
1903,000000	1,095245E-9	1,905762	-0,011565
1904,000000	3,656806E-11	1,906250	-0,011368
1905,000000	4,067001E-10	1,906738	-0,011081
1906,000000	2,342129E-10	1,907227	-0,010734
1907,000000	2,444788E-10	1,907715	-0,011290
1908,000000	1,938322E-9	1,908203	-0,009873
1909,000000	4,514985E-10	1,908691	-0,009986
1910,000000	1,364529E-10	1,909180	-0,009335
1911,000000	1,231881E-9	1,909668	-0,010220
1912,000000	3,835452E-10	1,910156	-0,009221
1913,000000	2,945832E-10	1,910645	-0,010076
1914,000000	9,660452E-10	1,911133	-0,009580
1915,000000	3,855476E-10	1,911621	-0,009054
1916,000000	1,236412E-9	1,912109	-0,009179
1917,000000	6,526451E-10	1,912598	-0,007935
1918,000000	2,053260E-9	1,913086	-0,008635
1919,000000	6,989368E-10	1,913574	-0,008868
1920,000000	1,977665E-10	1,914062	-0,006877
1921,000000	8,686693E-10	1,914551	-0,007224
1922,000000	3,685589E-10	1,915039	-0,008001
1923,000000	8,279285E-10	1,915527	-0,006381
1924,000000	2,791888E-10	1,916016	-0,007834
1925,000000	1,657755E-9	1,916504	-0,006165
1926,000000	1,808275E-9	1,916992	-0,004808
1927,000000	6,696492E-11	1,917480	-0,005687
1928,000000	1,228084E-9	1,917969	-0,004425
1929,000000	1,655036E-9	1,918457	-0,003893
1930,000000	4,973691E-10	1,918945	-0,003367
1931,000000	1,884932E-9	1,919434	-0,002201
1932,000000	4,832072E-10	1,919922	-0,003008
1933,000000	2,358508E-10	1,920410	-0,003265
1934,000000	9,560898E-10	1,920898	-0,002351
1935,000000	2,347628E-9	1,921387	-0,000748
1936,000000	4,406794E-10	1,921875	-0,000593
1937,000000	9,312049E-10	1,922363	0,000322
1938,000000	3,210276E-10	1,922852	0,000257
1939,000000	8,956302E-10	1,923340	0,001243
1940,000000	7,400709E-10	1,923828	0,001985
1941,000000	1,779621E-9	1,924316	0,001716
1942,000000	8,869949E-10	1,924805	0,001680
1943,000000	3,402663E-10	1,925293	0,003180
1944,000000	1,356682E-9	1,925781	0,003958
1945,000000	1,091606E-9	1,926270	0,004759
1946,000000	7,599390E-9	1,926758	0,004042
1947,000000	5,401774E-10	1,927246	0,004305
1948,000000	1,778878E-9	1,927734	0,004861
1949,000000	4,855701E-10	1,928223	0,005710
1950,000000	1,931531E-9	1,928711	0,006039
1951,000000	5,662914E-10	1,929199	0,006164
1952,000000	3,072708E-9	1,929687	0,007157
1953,000000	1,544991E-9	1,930176	0,006009
1954,000000	1,223434E-10	1,930664	0,007569
1955,000000	2,302369E-9	1,931152	0,008472
1956,000000	2,517442E-9	1,931641	0,008813
1957,000000	7,532047E-10	1,932129	0,008574
1958,000000	4,789494E-9	1,932617	0,008042
1959,000000	2,937094E-9	1,933105	0,009076
1960,000000	7,681916E-10	1,933594	0,009895
1961,000000	3,096688E-9	1,934082	0,008718
1962,000000	2,497547E-9	1,934570	0,010254
1963,000000	7,852751E-10	1,935059	0,010416
1964,000000	3,926441E-9	1,935547	0,010607
1965,000000	9,011556E-9	1,936035	0,010960
1966,000000	4,498952E-9	1,936523	0,010930
1967,000000	5,380794E-9	1,937012	0,011295
1968,000000	6,302470E-9	1,937500	0,012138
1969,000000	2,328460E-9	1,937988	0,011785
1970,000000	2,576691E-8	1,938477	0,011988
1971,000000	5,593397E-8	1,938965	0,012616
1972,000000	4,888303E-10	1,939453	0,012718
1973,000000	9,911771E-9	1,939941	0,014446
1974,000000	5,426107E-9	1,940430	0,012509
1975,000000	5,023049E-9	1,940918	0,013651
1976,000000	9,571739E-9	1,941406	0,013513
1977,000000	1,111778E-8	1,941895	0,014530
1978,000000	1,463164E-8	1,942383	0,014219
1979,000000	1,703989E-8	1,942871	0,015169
1980,000000	2,177549E-8	1,943359	0,014195
1981,000000	3,506948E-8	1,943848	0,015241
1982,000000	4,921246E-8	1,944336	0,014518
1983,000000	7,095193E-8	1,944824	0,014960
1984,000000	7,595127E-8	1,945312	0,013758
1985,000000	1,326034E-7	1,945801	0,015504
1986,000000	2,586512E-7	1,946289	0,015223
1987,000000	5,432170E-7	1,946777	0,013890
1988,000000	1,643325E-6	1,947266	0,015068
1989,000000	0,000107	1,947754	0,015929
1990,000000	4,280914E-6	1,948242	0,015044
1991,000000	9,579197E-7	1,948730	0,016048
1992,000000	4,044537E-7	1,949219	0,015456
1993,000000	2,674385E-7	1,949707	0,015289
1994,000000	1,920482E-7	1,950195	0,014506
1995,000000	1,316953E-7	1,950684	0,014882
1996,000000	1,325491E-7	1,951172	0,014661
1997,000000	1,221540E-7	1,951660	0,013950
1998,000000	7,512740E-8	1,952148	0,014458
1999,000000	9,219875E-8	1,952637	0,014900
