LabVIEW Measurement	
Writer_Version	2
Reader_Version	2
Separator	Tab
Decimal_Separator	,
Multi_Headings	No
X_Columns	Multi
Time_Pref	Relative
Operator	eduardo.wisbecki
Date	2025/07/01
Time	10:26:57,3220315187499569177
***End_of_Header***	
	
Channels	2			
Samples	1000		1000	
Date	2025/07/01		2025/07/01	
Time	10:26:57,9266386032104492188		10:26:57,3220315187499569177	
Y_Unit_Label			m/s^2	
X_Dimension	Time		Time	
X0	0,0000000000000000E+0		0,0000000000000000E+0	
Delta_X	1,000000		0,000605	
***End_of_Header***				
X_Value	Untitled	X_Value	Acceleration	Comment
0,000000	3,450115E-5	0,000000	-0,186244
1,000000	6,579705E-5	0,000605	-0,190394
2,000000	6,949654E-5	0,001211	-0,194460
3,000000	7,802295E-5	0,001816	-0,206891
4,000000	9,788519E-5	0,002422	-0,225517
5,000000	0,000157	0,003027	-0,246631
6,000000	0,000634	0,003633	-0,256186
7,000000	0,001077	0,004238	-0,250105
8,000000	7,639217E-5	0,004844	-0,243707
9,000000	3,396529E-5	0,005449	-0,237811
10,000000	2,129707E-5	0,006055	-0,235539
11,000000	2,114214E-5	0,006660	-0,234905
12,000000	1,748740E-5	0,007266	-0,236699
13,000000	1,529926E-5	0,007871	-0,243755
14,000000	1,382773E-5	0,008477	-0,247755
15,000000	1,199270E-5	0,009082	-0,245746
16,000000	1,073011E-5	0,009687	-0,236077
17,000000	8,859911E-6	0,010293	-0,228902
18,000000	4,397468E-5	0,010898	-0,221553
19,000000	2,351935E-5	0,011504	-0,215382
20,000000	8,504754E-6	0,012109	-0,210820
21,000000	6,989614E-6	0,012715	-0,210264
22,000000	5,158953E-6	0,013320	-0,211507
23,000000	4,158503E-6	0,013926	-0,209941
24,000000	3,131486E-6	0,014531	-0,204242
25,000000	2,484078E-6	0,015137	-0,195710
26,000000	6,363636E-6	0,015742	-0,184546
27,000000	9,415327E-6	0,016348	-0,174710
28,000000	4,280261E-6	0,016953	-0,164036
29,000000	6,775289E-6	0,017559	-0,154852
30,000000	7,945032E-6	0,018164	-0,146163
31,000000	3,593033E-6	0,018770	-0,137170
32,000000	5,470863E-7	0,019375	-0,127980
33,000000	7,929412E-7	0,019980	-0,117540
34,000000	6,313297E-7	0,020586	-0,108552
35,000000	5,830878E-7	0,021191	-0,099440
36,000000	5,856499E-7	0,021797	-0,090626
37,000000	6,751347E-7	0,022402	-0,086058
38,000000	7,863001E-7	0,023008	-0,089615
39,000000	7,869579E-7	0,023613	-0,101813
40,000000	6,046147E-7	0,024219	-0,113360
41,000000	6,028041E-7	0,024824	-0,118269
42,000000	1,152792E-6	0,025430	-0,120703
43,000000	1,296912E-6	0,026035	-0,120595
44,000000	1,345043E-6	0,026641	-0,119501
45,000000	1,589534E-6	0,027246	-0,116152
46,000000	1,383652E-6	0,027852	-0,113306
47,000000	1,284667E-6	0,028457	-0,108044
48,000000	1,240911E-6	0,029062	-0,109246
49,000000	1,098856E-6	0,029668	-0,109533
50,000000	1,063667E-6	0,030273	-0,105126
51,000000	9,997078E-7	0,030879	-0,095888
52,000000	1,010863E-6	0,031484	-0,085442
53,000000	1,025852E-6	0,032090	-0,077632
54,000000	8,289205E-7	0,032695	-0,071683
55,000000	6,981468E-7	0,033301	-0,066947
56,000000	6,453495E-7	0,033906	-0,063090
57,000000	4,720832E-7	0,034512	-0,058803
58,000000	4,197726E-7	0,035117	-0,053978
59,000000	3,574011E-7	0,035723	-0,047974
60,000000	2,848223E-7	0,036328	-0,040195
61,000000	2,662765E-7	0,036934	-0,034478
62,000000	2,111587E-7	0,037539	-0,028660
63,000000	2,240186E-7	0,038145	-0,025712
64,000000	2,082523E-7	0,038750	-0,023398
65,000000	2,395685E-7	0,039355	-0,021186
66,000000	2,376645E-7	0,039961	-0,019063
67,000000	2,804838E-7	0,040566	-0,016151
68,000000	2,780721E-7	0,041172	-0,013383
69,000000	2,810147E-7	0,041777	-0,010369
70,000000	3,109986E-7	0,042383	-0,006225
71,000000	3,218128E-7	0,042988	-0,005053
72,000000	3,436279E-7	0,043594	-0,003427
73,000000	3,472998E-7	0,044199	-0,001208
74,000000	3,366306E-7	0,044805	0,002445
75,000000	3,475220E-7	0,045410	0,006756
76,000000	3,346270E-7	0,046016	0,012221
77,000000	3,679166E-7	0,046621	0,015929
78,000000	3,203109E-7	0,047227	0,018793
79,000000	3,314607E-7	0,047832	0,025418
80,000000	2,871256E-7	0,048438	0,029777
81,000000	2,562706E-7	0,049043	0,037790
82,000000	2,209985E-7	0,049648	0,045174
83,000000	2,152026E-7	0,050254	0,053504
84,000000	1,980835E-7	0,050859	0,061014
85,000000	1,832871E-7	0,051465	0,067789
86,000000	1,765479E-7	0,052070	0,075305
87,000000	1,617869E-7	0,052676	0,081506
88,000000	1,575066E-7	0,053281	0,088083
89,000000	1,451414E-7	0,053887	0,094290
90,000000	1,550787E-7	0,054492	0,100282
91,000000	1,420289E-7	0,055098	0,106064
92,000000	1,522980E-7	0,055703	0,112402
93,000000	1,476303E-7	0,056309	0,116976
94,000000	1,446143E-7	0,056914	0,121581
95,000000	1,499904E-7	0,057520	0,125198
96,000000	1,406110E-7	0,058125	0,128278
97,000000	1,310348E-7	0,058730	0,129641
98,000000	1,404134E-7	0,059336	0,131722
99,000000	1,323295E-7	0,059941	0,132840
100,000000	1,613637E-7	0,060547	0,132936
101,000000	1,386311E-7	0,061152	0,131907
102,000000	1,488546E-7	0,061758	0,130520
103,000000	1,407332E-7	0,062363	0,128098
104,000000	1,447590E-7	0,062969	0,124158
105,000000	1,161098E-7	0,063574	0,120074
106,000000	1,193137E-7	0,064180	0,115063
107,000000	1,020966E-7	0,064785	0,111840
108,000000	7,516624E-8	0,065391	0,105388
109,000000	6,533853E-8	0,065996	0,099857
110,000000	3,963292E-8	0,066602	0,093883
111,000000	3,961219E-8	0,067207	0,088968
112,000000	2,297921E-8	0,067812	0,083061
113,000000	1,681784E-8	0,068418	0,078713
114,000000	1,357863E-8	0,069023	0,075855
115,000000	1,095676E-8	0,069629	0,073428
116,000000	1,190588E-8	0,070234	0,070827
117,000000	2,807423E-8	0,070840	0,069553
118,000000	3,264742E-8	0,071445	0,067233
119,000000	4,456245E-8	0,072051	0,066814
120,000000	4,965744E-8	0,072656	0,068931
121,000000	5,374752E-8	0,073262	0,070085
122,000000	7,325602E-8	0,073867	0,071066
123,000000	8,290431E-8	0,074473	0,072782
124,000000	9,604845E-8	0,075078	0,074737
125,000000	1,032420E-7	0,075684	0,076782
126,000000	1,037723E-7	0,076289	0,078708
127,000000	9,428555E-8	0,076895	0,079497
128,000000	8,245814E-8	0,077500	0,079371
129,000000	7,581386E-8	0,078105	0,079455
130,000000	6,438320E-8	0,078711	0,079138
131,000000	5,535476E-8	0,079316	0,077942
132,000000	4,739519E-8	0,079922	0,076471
133,000000	4,349409E-8	0,080527	0,073894
134,000000	4,442283E-8	0,081133	0,071173
135,000000	5,523978E-8	0,081738	0,068261
136,000000	5,246774E-8	0,082344	0,064189
137,000000	5,204102E-8	0,082949	0,059328
138,000000	5,622483E-8	0,083555	0,056799
139,000000	6,337614E-8	0,084160	0,049958
140,000000	6,241235E-8	0,084766	0,044816
141,000000	7,379424E-8	0,085371	0,041563
142,000000	7,861861E-8	0,085977	0,035506
143,000000	7,370162E-8	0,086582	0,029957
144,000000	7,188794E-8	0,087188	0,024832
145,000000	7,239291E-8	0,087793	0,019869
146,000000	7,286047E-8	0,088398	0,014607
147,000000	7,640045E-8	0,089004	0,009650
148,000000	7,128046E-8	0,089609	0,004634
149,000000	6,475212E-8	0,090215	-0,001717
150,000000	6,672610E-8	0,090820	-0,006751
151,000000	7,374106E-8	0,091426	-0,012037
152,000000	7,160276E-8	0,092031	-0,017574
153,000000	7,153792E-8	0,092637	-0,022077
154,000000	6,302819E-8	0,093242	-0,027542
155,000000	6,613281E-8	0,093848	-0,032218
156,000000	7,341598E-8	0,094453	-0,037462
157,000000	6,107813E-8	0,095059	-0,042192
158,000000	5,369514E-8	0,095664	-0,046485
159,000000	5,429989E-8	0,096270	-0,052166
160,000000	5,891275E-8	0,096875	-0,055981
161,000000	5,214814E-8	0,097480	-0,060764
162,000000	5,513473E-8	0,098086	-0,065309
163,000000	5,712299E-8	0,098691	-0,069751
164,000000	5,677953E-8	0,099297	-0,072962
165,000000	6,036659E-8	0,099902	-0,077351
166,000000	5,941870E-8	0,100508	-0,081716
167,000000	5,601704E-8	0,101113	-0,085059
168,000000	5,610565E-8	0,101719	-0,089585
169,000000	5,007430E-8	0,102324	-0,093388
170,000000	5,366567E-8	0,102930	-0,097138
171,000000	5,397244E-8	0,103535	-0,099936
172,000000	4,748618E-8	0,104141	-0,102053
173,000000	5,677878E-8	0,104746	-0,104235
174,000000	4,937536E-8	0,105352	-0,106202
175,000000	5,264468E-8	0,105957	-0,107937
176,000000	6,457491E-8	0,106563	-0,109521
177,000000	6,621593E-8	0,107168	-0,110914
178,000000	6,355826E-8	0,107773	-0,111710
179,000000	6,714753E-8	0,108379	-0,112630
180,000000	5,917457E-8	0,108984	-0,112756
181,000000	6,265108E-8	0,109590	-0,112858
182,000000	5,912457E-8	0,110195	-0,112894
183,000000	5,728515E-8	0,110801	-0,110914
184,000000	5,439237E-8	0,111406	-0,108863
185,000000	4,364770E-8	0,112012	-0,108349
186,000000	5,116572E-8	0,112617	-0,106890
187,000000	4,647259E-8	0,113223	-0,103972
188,000000	4,367296E-8	0,113828	-0,100606
189,000000	4,480201E-8	0,114434	-0,098088
190,000000	4,060174E-8	0,115039	-0,094357
191,000000	3,914317E-8	0,115645	-0,091296
192,000000	3,416122E-8	0,116250	-0,088354
193,000000	4,591322E-8	0,116855	-0,084892
194,000000	4,000192E-8	0,117461	-0,080718
195,000000	3,667256E-8	0,118066	-0,077345
196,000000	4,377981E-8	0,118672	-0,073782
197,000000	4,099685E-8	0,119277	-0,070768
198,000000	4,206616E-8	0,119883	-0,067103
199,000000	4,357935E-8	0,120488	-0,064681
200,000000	4,273108E-8	0,121094	-0,061727
201,000000	5,295454E-8	0,121699	-0,059317
202,000000	5,125841E-8	0,122305	-0,056184
203,000000	5,418712E-8	0,122910	-0,053870
204,000000	5,927777E-8	0,123516	-0,052877
205,000000	5,652692E-8	0,124121	-0,050408
206,000000	5,489015E-8	0,124727	-0,048411
207,000000	4,691034E-8	0,125332	-0,046228
208,000000	5,013023E-8	0,125938	-0,045164
209,000000	5,085068E-8	0,126543	-0,043226
210,000000	4,686106E-8	0,127148	-0,041217
211,000000	4,636318E-8	0,127754	-0,039746
212,000000	4,002734E-8	0,128359	-0,037683
213,000000	4,308736E-8	0,128965	-0,035034
214,000000	3,137974E-8	0,129570	-0,032015
215,000000	3,777567E-8	0,130176	-0,029874
216,000000	3,758746E-8	0,130781	-0,026382
217,000000	3,730543E-8	0,131387	-0,023291
218,000000	3,650382E-8	0,131992	-0,020002
219,000000	4,286950E-8	0,132598	-0,015990
220,000000	3,416487E-8	0,133203	-0,012701
221,000000	5,261376E-8	0,133809	-0,008629
222,000000	4,491598E-8	0,134414	-0,004384
223,000000	4,216421E-8	0,135020	-0,001705
224,000000	4,541228E-8	0,135625	0,003354
225,000000	4,590871E-8	0,136230	0,006989
226,000000	3,954066E-8	0,136836	0,009746
227,000000	4,310161E-8	0,137441	0,012879
228,000000	4,471021E-8	0,138047	0,018177
229,000000	4,064290E-8	0,138652	0,020031
230,000000	4,540161E-8	0,139258	0,024318
231,000000	4,221675E-8	0,139863	0,027380
232,000000	4,388467E-8	0,140469	0,030782
233,000000	3,294331E-8	0,141074	0,034746
234,000000	2,987891E-8	0,141680	0,038938
235,000000	3,700333E-8	0,142285	0,041826
236,000000	3,457512E-8	0,142891	0,046245
237,000000	2,930065E-8	0,143496	0,050108
238,000000	3,043038E-8	0,144102	0,053462
239,000000	2,823065E-8	0,144707	0,057157
240,000000	3,340562E-8	0,145313	0,062629
241,000000	2,294540E-8	0,145918	0,067221
242,000000	2,736808E-8	0,146523	0,072016
243,000000	2,866404E-8	0,147129	0,076692
244,000000	2,577230E-8	0,147734	0,081410
245,000000	2,784115E-8	0,148340	0,086415
246,000000	2,305679E-8	0,148945	0,091103
247,000000	3,090999E-8	0,149551	0,095917
248,000000	2,792601E-8	0,150156	0,101376
249,000000	2,470058E-8	0,150762	0,105143
250,000000	2,671251E-8	0,151367	0,108820
251,000000	2,559078E-8	0,151973	0,112103
252,000000	2,290739E-8	0,152578	0,115733
253,000000	2,066149E-8	0,153184	0,118405
254,000000	2,478897E-8	0,153789	0,119769
255,000000	2,418766E-8	0,154395	0,122657
256,000000	2,511140E-8	0,155000	0,122956
257,000000	2,630388E-8	0,155605	0,123643
258,000000	2,633363E-8	0,156211	0,123649
259,000000	2,732676E-8	0,156816	0,121808
260,000000	2,095554E-8	0,157422	0,120187
261,000000	2,381140E-8	0,158027	0,118770
262,000000	2,134172E-8	0,158633	0,115535
263,000000	2,286100E-8	0,159238	0,112647
264,000000	2,560587E-8	0,159844	0,109568
265,000000	2,973231E-8	0,160449	0,105699
266,000000	2,411013E-8	0,161055	0,102464
267,000000	2,022081E-8	0,161660	0,097310
268,000000	2,233721E-8	0,162266	0,091874
269,000000	1,714626E-8	0,162871	0,087396
270,000000	2,589711E-8	0,163477	0,083300
271,000000	1,889965E-8	0,164082	0,078809
272,000000	1,897407E-8	0,164687	0,073326
273,000000	1,698996E-8	0,165293	0,069965
274,000000	2,300737E-8	0,165898	0,064895
275,000000	2,324926E-8	0,166504	0,060380
276,000000	2,240461E-8	0,167109	0,056404
277,000000	2,007978E-8	0,167715	0,053468
278,000000	2,259586E-8	0,168320	0,049707
279,000000	2,306663E-8	0,168926	0,046550
280,000000	2,684210E-8	0,169531	0,044678
281,000000	2,972569E-8	0,170137	0,042041
282,000000	2,215776E-8	0,170742	0,039978
283,000000	1,798476E-8	0,171348	0,037264
284,000000	2,278879E-8	0,171953	0,036074
285,000000	2,397758E-8	0,172559	0,033933
286,000000	2,525268E-8	0,173164	0,033640
287,000000	2,761144E-8	0,173770	0,032498
288,000000	2,555807E-8	0,174375	0,030860
289,000000	2,070027E-8	0,174980	0,028952
290,000000	2,184206E-8	0,175586	0,027756
291,000000	1,935135E-8	0,176191	0,026417
292,000000	2,307607E-8	0,176797	0,024444
293,000000	1,764980E-8	0,177402	0,022763
294,000000	2,050843E-8	0,178008	0,020449
295,000000	2,075753E-8	0,178613	0,017902
296,000000	1,827994E-8	0,179219	0,015301
297,000000	2,426244E-8	0,179824	0,012945
298,000000	1,665258E-8	0,180430	0,009028
299,000000	1,585709E-8	0,181035	0,005752
300,000000	1,835307E-8	0,181641	0,000962
301,000000	1,762595E-8	0,182246	-0,002482
302,000000	2,730224E-8	0,182852	-0,007349
303,000000	1,710163E-8	0,183457	-0,010788
304,000000	1,745386E-8	0,184062	-0,015667
305,000000	2,271074E-8	0,184668	-0,019243
306,000000	1,781555E-8	0,185273	-0,024762
307,000000	1,994340E-8	0,185879	-0,029922
308,000000	2,151432E-8	0,186484	-0,033821
309,000000	2,289284E-8	0,187090	-0,037839
310,000000	2,056628E-8	0,187695	-0,042228
311,000000	1,626619E-8	0,188301	-0,046270
312,000000	1,952863E-8	0,188906	-0,050133
313,000000	2,320146E-8	0,189512	-0,053110
314,000000	1,727641E-8	0,190117	-0,056118
315,000000	1,933874E-8	0,190723	-0,058677
316,000000	1,920309E-8	0,191328	-0,061554
317,000000	1,687530E-8	0,191934	-0,063826
318,000000	2,000542E-8	0,192539	-0,066624
319,000000	1,675003E-8	0,193145	-0,068322
320,000000	1,987070E-8	0,193750	-0,070343
321,000000	1,770098E-8	0,194355	-0,072221
322,000000	2,049450E-8	0,194961	-0,074188
323,000000	2,371803E-8	0,195566	-0,075474
324,000000	2,188762E-8	0,196172	-0,077094
325,000000	1,554376E-8	0,196777	-0,080198
326,000000	1,936768E-8	0,197383	-0,081567
327,000000	1,681753E-8	0,197988	-0,083289
328,000000	2,128257E-8	0,198594	-0,085932
329,000000	2,352172E-8	0,199199	-0,088527
330,000000	1,750974E-8	0,199805	-0,090207
331,000000	2,003296E-8	0,200410	-0,092306
332,000000	1,662145E-8	0,201016	-0,094620
333,000000	1,945682E-8	0,201621	-0,096988
334,000000	1,731912E-8	0,202227	-0,099637
335,000000	1,838042E-8	0,202832	-0,100695
336,000000	2,258977E-8	0,203437	-0,101216
337,000000	2,090930E-8	0,204043	-0,102663
338,000000	1,988151E-8	0,204648	-0,104337
339,000000	1,434696E-8	0,205254	-0,104708
340,000000	1,449278E-8	0,205859	-0,104983
341,000000	1,500778E-8	0,206465	-0,103805
342,000000	1,383832E-8	0,207070	-0,103446
343,000000	1,590816E-8	0,207676	-0,102435
344,000000	2,387740E-8	0,208281	-0,101592
345,000000	1,497083E-8	0,208887	-0,097706
346,000000	1,904021E-8	0,209492	-0,094722
347,000000	1,657264E-8	0,210098	-0,092067
348,000000	1,551234E-8	0,210703	-0,088372
349,000000	1,969257E-8	0,211309	-0,083749
350,000000	1,851365E-8	0,211914	-0,079193
351,000000	2,314986E-8	0,212520	-0,074415
352,000000	1,262102E-8	0,213125	-0,069596
353,000000	1,647733E-8	0,213730	-0,065069
354,000000	1,818749E-8	0,214336	-0,058624
355,000000	1,497121E-8	0,214941	-0,053200
356,000000	1,501153E-8	0,215547	-0,047364
357,000000	1,286542E-8	0,216152	-0,042359
358,000000	2,011960E-8	0,216758	-0,036284
359,000000	1,501610E-8	0,217363	-0,032338
360,000000	1,308981E-8	0,217969	-0,026041
361,000000	1,373452E-8	0,218574	-0,022047
362,000000	1,546454E-8	0,219180	-0,017909
363,000000	1,903938E-8	0,219785	-0,012815
364,000000	1,926195E-8	0,220391	-0,009992
365,000000	1,368592E-8	0,220996	-0,004999
366,000000	1,823570E-8	0,221602	-0,002279
367,000000	1,619210E-8	0,222207	0,000484
368,000000	1,921295E-8	0,222812	0,003575
369,000000	1,498554E-8	0,223418	0,006182
370,000000	1,613135E-8	0,224023	0,007773
371,000000	1,926069E-8	0,224629	0,008885
372,000000	1,865432E-8	0,225234	0,011038
373,000000	1,638721E-8	0,225840	0,013710
374,000000	1,767243E-8	0,226445	0,012939
375,000000	1,698928E-8	0,227051	0,014542
376,000000	1,850741E-8	0,227656	0,015026
377,000000	1,830234E-8	0,228262	0,015546
378,000000	1,422026E-8	0,228867	0,017125
379,000000	1,936677E-8	0,229473	0,018775
380,000000	1,726868E-8	0,230078	0,019845
381,000000	1,363200E-8	0,230684	0,021585
382,000000	1,952712E-8	0,231289	0,023547
383,000000	1,449789E-8	0,231895	0,025095
384,000000	1,480087E-8	0,232500	0,028342
385,000000	1,471446E-8	0,233105	0,029155
386,000000	1,576676E-8	0,233711	0,032743
387,000000	1,616511E-8	0,234316	0,035661
388,000000	1,599896E-8	0,234922	0,039040
389,000000	1,679265E-8	0,235527	0,043124
390,000000	1,897214E-8	0,236133	0,044917
391,000000	1,240178E-8	0,236738	0,049342
392,000000	1,256834E-8	0,237344	0,053097
393,000000	1,628683E-8	0,237949	0,056697
394,000000	1,458894E-8	0,238555	0,059848
395,000000	1,650437E-8	0,239160	0,065188
396,000000	1,633899E-8	0,239766	0,068309
397,000000	1,599497E-8	0,240371	0,072196
398,000000	1,613373E-8	0,240977	0,075580
399,000000	1,435265E-8	0,241582	0,079102
400,000000	1,415920E-8	0,242187	0,082026
401,000000	1,124629E-8	0,242793	0,084753
402,000000	1,573906E-8	0,243398	0,088627
403,000000	1,118209E-8	0,244004	0,090924
404,000000	1,566976E-8	0,244609	0,092197
405,000000	1,460750E-8	0,245215	0,094242
406,000000	1,432561E-8	0,245820	0,097053
407,000000	1,845690E-8	0,246426	0,098811
408,000000	1,283231E-8	0,247031	0,099026
409,000000	1,838921E-8	0,247637	0,100425
410,000000	2,146724E-8	0,248242	0,101454
411,000000	1,638424E-8	0,248848	0,102147
412,000000	1,645540E-8	0,249453	0,102518
413,000000	1,554641E-8	0,250059	0,101926
414,000000	1,463251E-8	0,250664	0,101800
415,000000	1,593704E-8	0,251270	0,101412
416,000000	1,141789E-8	0,251875	0,100431
417,000000	1,605777E-8	0,252480	0,099349
418,000000	1,685723E-8	0,253086	0,097722
419,000000	1,158307E-8	0,253691	0,097280
420,000000	1,264526E-8	0,254297	0,095833
421,000000	1,161580E-8	0,254902	0,093746
422,000000	1,281395E-8	0,255508	0,091252
423,000000	1,897405E-8	0,256113	0,089136
424,000000	1,488145E-8	0,256719	0,086218
425,000000	1,304603E-8	0,257324	0,082971
426,000000	1,291818E-8	0,257930	0,080585
427,000000	1,765284E-8	0,258535	0,077087
428,000000	1,314263E-8	0,259141	0,074552
429,000000	1,334786E-8	0,259746	0,070713
430,000000	1,054898E-8	0,260352	0,065929
431,000000	1,091081E-8	0,260957	0,062401
432,000000	1,004482E-8	0,261562	0,059603
433,000000	1,158431E-8	0,262168	0,054784
434,000000	1,521682E-8	0,262773	0,050993
435,000000	1,218905E-8	0,263379	0,047004
436,000000	1,264380E-8	0,263984	0,043004
437,000000	1,887221E-8	0,264590	0,040337
438,000000	1,665887E-8	0,265195	0,034926
439,000000	1,528717E-8	0,265801	0,032325
440,000000	1,486647E-8	0,266406	0,026710
441,000000	1,581569E-8	0,267012	0,022405
442,000000	1,400928E-8	0,267617	0,017591
443,000000	1,358325E-8	0,268223	0,012915
444,000000	1,053081E-8	0,268828	0,008622
445,000000	1,166630E-8	0,269434	0,003557
446,000000	1,253920E-8	0,270039	-9,029659E-5
447,000000	9,216198E-9	0,270645	-0,005161
448,000000	1,411559E-8	0,271250	-0,008922
449,000000	1,307082E-8	0,271855	-0,013030
450,000000	1,196038E-8	0,272461	-0,015745
451,000000	1,386549E-8	0,273066	-0,019835
452,000000	1,932484E-8	0,273672	-0,023016
453,000000	1,044172E-8	0,274277	-0,026717
454,000000	1,497641E-8	0,274883	-0,028756
455,000000	1,144248E-8	0,275488	-0,031226
456,000000	1,308875E-8	0,276094	-0,034478
457,000000	1,366172E-8	0,276699	-0,036446
458,000000	9,491289E-9	0,277305	-0,039364
459,000000	1,991030E-8	0,277910	-0,040715
460,000000	1,483995E-8	0,278516	-0,042605
461,000000	1,432711E-8	0,279121	-0,043531
462,000000	1,394955E-8	0,279727	-0,045887
463,000000	1,469822E-8	0,280332	-0,047095
464,000000	1,405496E-8	0,280938	-0,047693
465,000000	1,540099E-8	0,281543	-0,048488
466,000000	9,487010E-9	0,282148	-0,049463
467,000000	1,602792E-8	0,282754	-0,050575
468,000000	1,154370E-8	0,283359	-0,051586
469,000000	8,289721E-9	0,283965	-0,053015
470,000000	1,362324E-8	0,284570	-0,054450
471,000000	1,280078E-8	0,285176	-0,055538
472,000000	1,555364E-8	0,285781	-0,056949
473,000000	1,477765E-8	0,286387	-0,058815
474,000000	1,520666E-8	0,286992	-0,058911
475,000000	1,385488E-8	0,287598	-0,061296
476,000000	1,496596E-8	0,288203	-0,062104
477,000000	1,867567E-8	0,288809	-0,063951
478,000000	1,519353E-8	0,289414	-0,065667
479,000000	1,440823E-8	0,290020	-0,068669
480,000000	1,872364E-8	0,290625	-0,070899
481,000000	1,557169E-8	0,291230	-0,072478
482,000000	1,354471E-8	0,291836	-0,074822
483,000000	1,210615E-8	0,292441	-0,077232
484,000000	1,346156E-8	0,293047	-0,079211
485,000000	1,300259E-8	0,293652	-0,080658
486,000000	1,220320E-8	0,294258	-0,082093
487,000000	1,306549E-8	0,294863	-0,084192
488,000000	1,356092E-8	0,295469	-0,085627
489,000000	1,366599E-8	0,296074	-0,087768
490,000000	1,518442E-8	0,296680	-0,088348
491,000000	1,354850E-8	0,297285	-0,089585
492,000000	1,154772E-8	0,297891	-0,090297
493,000000	1,799923E-8	0,298496	-0,090979
494,000000	1,378669E-8	0,299102	-0,091272
495,000000	1,180237E-8	0,299707	-0,091487
496,000000	1,074402E-8	0,300312	-0,090638
497,000000	1,824976E-8	0,300918	-0,090680
498,000000	1,334672E-8	0,301523	-0,088019
499,000000	1,627313E-8	0,302129	-0,086410
500,000000	1,396764E-8	0,302734	-0,084300
501,000000	1,627313E-8	0,303340	-0,081489
502,000000	1,334672E-8	0,303945	-0,079139
503,000000	1,824976E-8	0,304551	-0,076735
504,000000	1,074402E-8	0,305156	-0,072789
505,000000	1,180237E-8	0,305762	-0,068526
506,000000	1,378669E-8	0,306367	-0,064394
507,000000	1,799923E-8	0,306973	-0,060477
508,000000	1,154772E-8	0,307578	-0,056573
509,000000	1,354850E-8	0,308184	-0,051382
510,000000	1,518442E-8	0,308789	-0,046886
511,000000	1,366599E-8	0,309395	-0,042646
512,000000	1,356092E-8	0,310000	-0,037689
513,000000	1,306549E-8	0,310605	-0,033300
514,000000	1,220320E-8	0,311211	-0,028122
515,000000	1,300259E-8	0,311816	-0,023984
516,000000	1,346156E-8	0,312422	-0,018950
517,000000	1,210615E-8	0,313027	-0,014124
518,000000	1,354471E-8	0,313633	-0,009532
519,000000	1,557169E-8	0,314238	-0,005472
520,000000	1,872364E-8	0,314844	-0,001244
521,000000	1,440823E-8	0,315449	0,003091
522,000000	1,519353E-8	0,316055	0,006589
523,000000	1,867567E-8	0,316660	0,010852
524,000000	1,496596E-8	0,317266	0,014936
525,000000	1,385488E-8	0,317871	0,017944
526,000000	1,520666E-8	0,318477	0,021406
527,000000	1,477765E-8	0,319082	0,024874
528,000000	1,555364E-8	0,319688	0,030124
529,000000	1,280078E-8	0,320293	0,031960
530,000000	1,362324E-8	0,320898	0,035111
531,000000	8,289721E-9	0,321504	0,037539
532,000000	1,154370E-8	0,322109	0,041055
533,000000	1,602792E-8	0,322715	0,042896
534,000000	9,487010E-9	0,323320	0,045432
535,000000	1,540099E-8	0,323926	0,047495
536,000000	1,405496E-8	0,324531	0,049575
537,000000	1,469822E-8	0,325137	0,052027
538,000000	1,394955E-8	0,325742	0,053701
539,000000	1,432711E-8	0,326348	0,055071
540,000000	1,483995E-8	0,326953	0,056219
541,000000	1,991030E-8	0,327559	0,057253
542,000000	9,491289E-9	0,328164	0,059794
543,000000	1,366172E-8	0,328770	0,061158
544,000000	1,308875E-8	0,329375	0,061690
545,000000	1,144248E-8	0,329980	0,063639
546,000000	1,497641E-8	0,330586	0,065224
547,000000	1,044172E-8	0,331191	0,065708
548,000000	1,932484E-8	0,331797	0,066958
549,000000	1,386549E-8	0,332402	0,067681
550,000000	1,196038E-8	0,333008	0,067657
551,000000	1,307082E-8	0,333613	0,069110
552,000000	1,411559E-8	0,334219	0,069798
553,000000	9,216198E-9	0,334824	0,070402
554,000000	1,253920E-8	0,335430	0,072333
555,000000	1,166630E-8	0,336035	0,072046
556,000000	1,053081E-8	0,336641	0,072483
557,000000	1,358325E-8	0,337246	0,073631
558,000000	1,400928E-8	0,337852	0,074534
559,000000	1,581569E-8	0,338457	0,074348
560,000000	1,486647E-8	0,339062	0,075580
561,000000	1,528717E-8	0,339668	0,076376
562,000000	1,665887E-8	0,340273	0,076740
563,000000	1,887221E-8	0,340879	0,076680
564,000000	1,264380E-8	0,341484	0,077243
565,000000	1,218905E-8	0,342090	0,078098
566,000000	1,521682E-8	0,342695	0,078307
567,000000	1,158431E-8	0,343301	0,078468
568,000000	1,004482E-8	0,343906	0,078008
569,000000	1,091081E-8	0,344512	0,078056
570,000000	1,054898E-8	0,345117	0,077751
571,000000	1,334786E-8	0,345723	0,077559
572,000000	1,314263E-8	0,346328	0,076459
573,000000	1,765284E-8	0,346934	0,076196
574,000000	1,291818E-8	0,347539	0,075443
575,000000	1,304603E-8	0,348145	0,074594
576,000000	1,488145E-8	0,348750	0,073374
577,000000	1,897405E-8	0,349355	0,072722
578,000000	1,281395E-8	0,349961	0,071436
579,000000	1,161580E-8	0,350566	0,069397
580,000000	1,264526E-8	0,351172	0,067657
581,000000	1,158307E-8	0,351777	0,064907
582,000000	1,685723E-8	0,352383	0,062730
583,000000	1,605777E-8	0,352988	0,060057
584,000000	1,141789E-8	0,353594	0,057833
585,000000	1,593704E-8	0,354199	0,055513
586,000000	1,463251E-8	0,354805	0,052332
587,000000	1,554641E-8	0,355410	0,048308
588,000000	1,645540E-8	0,356016	0,045402
589,000000	1,638424E-8	0,356621	0,041784
590,000000	2,146724E-8	0,357227	0,037282
591,000000	1,838921E-8	0,357832	0,034328
592,000000	1,283231E-8	0,358438	0,030758
593,000000	1,845690E-8	0,359043	0,026112
594,000000	1,432561E-8	0,359648	0,023529
595,000000	1,460750E-8	0,360254	0,018739
596,000000	1,566976E-8	0,360859	0,015116
597,000000	1,118209E-8	0,361465	0,010571
598,000000	1,573906E-8	0,362070	0,005620
599,000000	1,124629E-8	0,362676	0,001877
600,000000	1,415920E-8	0,363281	-0,002620
601,000000	1,435265E-8	0,363887	-0,006775
602,000000	1,613373E-8	0,364492	-0,012043
603,000000	1,599497E-8	0,365098	-0,015840
604,000000	1,633899E-8	0,365703	-0,021054
605,000000	1,650437E-8	0,366309	-0,025132
606,000000	1,458894E-8	0,366914	-0,028612
607,000000	1,628683E-8	0,367520	-0,034042
608,000000	1,256834E-8	0,368125	-0,037504
609,000000	1,240178E-8	0,368730	-0,040829
610,000000	1,897214E-8	0,369336	-0,043860
611,000000	1,679265E-8	0,369941	-0,045164
612,000000	1,599896E-8	0,370547	-0,049750
613,000000	1,616511E-8	0,371152	-0,053625
614,000000	1,576676E-8	0,371758	-0,055502
615,000000	1,471446E-8	0,372363	-0,055801
616,000000	1,480087E-8	0,372969	-0,058582
617,000000	1,449789E-8	0,373574	-0,060926
618,000000	1,952712E-8	0,374180	-0,060447
619,000000	1,363200E-8	0,374785	-0,063120
620,000000	1,726868E-8	0,375391	-0,063503
621,000000	1,936677E-8	0,375996	-0,065034
622,000000	1,422026E-8	0,376602	-0,065697
623,000000	1,830234E-8	0,377207	-0,067019
624,000000	1,850741E-8	0,377812	-0,066218
625,000000	1,698928E-8	0,378418	-0,067270
626,000000	1,767243E-8	0,379023	-0,066899
627,000000	1,638721E-8	0,379629	-0,066851
628,000000	1,865432E-8	0,380234	-0,066289
629,000000	1,926069E-8	0,380840	-0,065954
630,000000	1,613135E-8	0,381445	-0,065333
631,000000	1,498554E-8	0,382051	-0,064806
632,000000	1,921295E-8	0,382656	-0,064974
633,000000	1,619210E-8	0,383262	-0,064065
634,000000	1,823570E-8	0,383867	-0,064866
635,000000	1,368592E-8	0,384473	-0,063868
636,000000	1,926195E-8	0,385078	-0,063874
637,000000	1,903938E-8	0,385684	-0,063999
638,000000	1,546454E-8	0,386289	-0,063210
639,000000	1,373452E-8	0,386895	-0,063814
640,000000	1,308981E-8	0,387500	-0,063162
641,000000	1,501610E-8	0,388105	-0,064083
642,000000	2,011960E-8	0,388711	-0,064735
643,000000	1,286542E-8	0,389316	-0,065811
644,000000	1,501153E-8	0,389922	-0,066241
645,000000	1,497121E-8	0,390527	-0,066349
646,000000	1,818749E-8	0,391133	-0,066953
647,000000	1,647733E-8	0,391738	-0,066307
648,000000	1,262102E-8	0,392344	-0,066917
649,000000	2,314986E-8	0,392949	-0,066427
650,000000	1,851365E-8	0,393555	-0,065207
651,000000	1,969257E-8	0,394160	-0,064352
652,000000	1,551234E-8	0,394766	-0,064173
653,000000	1,657264E-8	0,395371	-0,062636
654,000000	1,904021E-8	0,395977	-0,061500
655,000000	1,497083E-8	0,396582	-0,060220
656,000000	2,387740E-8	0,397187	-0,057643
657,000000	1,590816E-8	0,397793	-0,055520
658,000000	1,383832E-8	0,398398	-0,052471
659,000000	1,500778E-8	0,399004	-0,050850
660,000000	1,449278E-8	0,399609	-0,048745
661,000000	1,434696E-8	0,400215	-0,046156
662,000000	1,988151E-8	0,400820	-0,043155
663,000000	2,090930E-8	0,401426	-0,039758
664,000000	2,258977E-8	0,402031	-0,036876
665,000000	1,838042E-8	0,402637	-0,034353
666,000000	1,731912E-8	0,403242	-0,031309
667,000000	1,945682E-8	0,403848	-0,027243
668,000000	1,662145E-8	0,404453	-0,024331
669,000000	2,003296E-8	0,405059	-0,021072
670,000000	1,750974E-8	0,405664	-0,018065
671,000000	2,352172E-8	0,406270	-0,013945
672,000000	2,128257E-8	0,406875	-0,009962
673,000000	1,681753E-8	0,407480	-0,006728
674,000000	1,936768E-8	0,408086	-0,004288
675,000000	1,554376E-8	0,408691	-0,000210
676,000000	2,188762E-8	0,409297	0,003067
677,000000	2,371803E-8	0,409902	0,005752
678,000000	2,049450E-8	0,410508	0,010045
679,000000	1,770098E-8	0,411113	0,012939
680,000000	1,987070E-8	0,411719	0,016670
681,000000	1,675003E-8	0,412324	0,019893
682,000000	2,000542E-8	0,412930	0,024210
683,000000	1,687530E-8	0,413535	0,027427
684,000000	1,920309E-8	0,414141	0,029963
685,000000	1,933874E-8	0,414746	0,034621
686,000000	1,727641E-8	0,415352	0,037198
687,000000	2,320146E-8	0,415957	0,041031
688,000000	1,952863E-8	0,416563	0,044260
689,000000	1,626619E-8	0,417168	0,047417
690,000000	2,056628E-8	0,417773	0,049958
691,000000	2,289284E-8	0,418379	0,054024
692,000000	2,151432E-8	0,418984	0,056069
693,000000	1,994340E-8	0,419590	0,060010
694,000000	1,781555E-8	0,420195	0,062413
695,000000	2,271074E-8	0,420801	0,064662
696,000000	1,745386E-8	0,421406	0,067891
697,000000	1,710163E-8	0,422012	0,069661
698,000000	2,730224E-8	0,422617	0,070659
699,000000	1,762595E-8	0,423223	0,072764
700,000000	1,835307E-8	0,423828	0,073996
701,000000	1,585709E-8	0,424434	0,075401
702,000000	1,665258E-8	0,425039	0,076387
703,000000	2,426244E-8	0,425645	0,076962
704,000000	1,827994E-8	0,426250	0,077679
705,000000	2,075753E-8	0,426855	0,077368
706,000000	2,050843E-8	0,427461	0,077655
707,000000	1,764980E-8	0,428066	0,078014
708,000000	2,307607E-8	0,428672	0,077954
709,000000	1,935135E-8	0,429277	0,077135
710,000000	2,184206E-8	0,429883	0,075795
711,000000	2,070027E-8	0,430488	0,075981
712,000000	2,555807E-8	0,431094	0,072895
713,000000	2,761144E-8	0,431699	0,072608
714,000000	2,525268E-8	0,432305	0,071640
715,000000	2,397758E-8	0,432910	0,069266
716,000000	2,278879E-8	0,433516	0,068393
717,000000	1,798476E-8	0,434121	0,067257
718,000000	2,215776E-8	0,434727	0,065726
719,000000	2,972569E-8	0,435332	0,064327
720,000000	2,684210E-8	0,435937	0,062718
721,000000	2,306663E-8	0,436543	0,060901
722,000000	2,259586E-8	0,437148	0,061044
723,000000	2,007978E-8	0,437754	0,059944
724,000000	2,240461E-8	0,438359	0,058844
725,000000	2,324926E-8	0,438965	0,058533
726,000000	2,300737E-8	0,439570	0,057648
727,000000	1,698996E-8	0,440176	0,057259
728,000000	1,897407E-8	0,440781	0,055890
729,000000	1,889965E-8	0,441387	0,055190
730,000000	2,589711E-8	0,441992	0,053641
731,000000	1,714626E-8	0,442598	0,053103
732,000000	2,233721E-8	0,443203	0,051878
733,000000	2,022081E-8	0,443809	0,051214
734,000000	2,411013E-8	0,444414	0,049534
735,000000	2,973231E-8	0,445020	0,047973
736,000000	2,560587E-8	0,445625	0,046221
737,000000	2,286100E-8	0,446230	0,042962
738,000000	2,134172E-8	0,446836	0,041760
739,000000	2,381140E-8	0,447441	0,039823
740,000000	2,095554E-8	0,448047	0,038687
741,000000	2,732676E-8	0,448652	0,035326
742,000000	2,633363E-8	0,449258	0,032982
743,000000	2,630388E-8	0,449863	0,031547
744,000000	2,511140E-8	0,450469	0,028946
745,000000	2,418766E-8	0,451074	0,025550
746,000000	2,478897E-8	0,451680	0,023170
747,000000	2,066149E-8	0,452285	0,020150
748,000000	2,290739E-8	0,452891	0,016921
749,000000	2,559078E-8	0,453496	0,013358
750,000000	2,671251E-8	0,454102	0,010159
751,000000	2,470058E-8	0,454707	0,006732
752,000000	2,792601E-8	0,455313	0,002182
753,000000	3,090999E-8	0,455918	-0,000341
754,000000	2,305679E-8	0,456523	-0,004641
755,000000	2,784115E-8	0,457129	-0,007726
756,000000	2,577230E-8	0,457734	-0,011248
757,000000	2,866404E-8	0,458340	-0,015260
758,000000	2,736808E-8	0,458945	-0,019057
759,000000	2,294540E-8	0,459551	-0,022035
760,000000	3,340562E-8	0,460156	-0,025970
761,000000	2,823065E-8	0,460762	-0,030155
762,000000	3,043038E-8	0,461367	-0,031704
763,000000	2,930065E-8	0,461973	-0,036284
764,000000	3,457512E-8	0,462578	-0,038592
765,000000	3,700333E-8	0,463184	-0,040894
766,000000	2,987891E-8	0,463789	-0,043998
767,000000	3,294331E-8	0,464395	-0,047035
768,000000	4,388467E-8	0,465000	-0,049373
769,000000	4,221675E-8	0,465605	-0,052722
770,000000	4,540161E-8	0,466211	-0,054575
771,000000	4,064290E-8	0,466816	-0,057499
772,000000	4,471021E-8	0,467422	-0,059413
773,000000	4,310161E-8	0,468027	-0,060101
774,000000	3,954066E-8	0,468633	-0,061870
775,000000	4,590871E-8	0,469238	-0,063563
776,000000	4,541228E-8	0,469844	-0,065715
777,000000	4,216421E-8	0,470449	-0,066726
778,000000	4,491598E-8	0,471055	-0,068125
779,000000	5,261376E-8	0,471660	-0,068878
780,000000	3,416487E-8	0,472266	-0,069811
781,000000	4,286950E-8	0,472871	-0,070236
782,000000	3,650382E-8	0,473477	-0,070547
783,000000	3,730543E-8	0,474082	-0,071360
784,000000	3,758746E-8	0,474687	-0,070660
785,000000	3,777567E-8	0,475293	-0,070624
786,000000	3,137974E-8	0,475898	-0,069889
787,000000	4,308736E-8	0,476504	-0,070236
788,000000	4,002734E-8	0,477109	-0,069716
789,000000	4,636318E-8	0,477715	-0,068394
790,000000	4,686106E-8	0,478320	-0,068005
791,000000	5,085068E-8	0,478926	-0,066427
792,000000	5,013023E-8	0,479531	-0,065207
793,000000	4,691034E-8	0,480137	-0,064573
794,000000	5,489015E-8	0,480742	-0,063419
795,000000	5,652692E-8	0,481348	-0,062205
796,000000	5,927777E-8	0,481953	-0,060286
797,000000	5,418712E-8	0,482559	-0,059784
798,000000	5,125841E-8	0,483164	-0,057386
799,000000	5,295454E-8	0,483770	-0,055945
800,000000	4,273108E-8	0,484375	-0,053816
801,000000	4,357935E-8	0,484980	-0,052303
802,000000	4,206616E-8	0,485586	-0,051161
803,000000	4,099685E-8	0,486191	-0,048357
804,000000	4,377981E-8	0,486797	-0,046880
805,000000	3,667256E-8	0,487402	-0,044913
806,000000	4,000192E-8	0,488008	-0,042467
807,000000	4,591322E-8	0,488613	-0,040607
808,000000	3,416122E-8	0,489219	-0,039609
809,000000	3,914317E-8	0,489824	-0,037056
810,000000	4,060174E-8	0,490430	-0,034789
811,000000	4,480201E-8	0,491035	-0,033516
812,000000	4,367296E-8	0,491641	-0,031309
813,000000	4,647259E-8	0,492246	-0,029193
814,000000	5,116572E-8	0,492852	-0,027195
815,000000	4,364770E-8	0,493457	-0,025862
816,000000	5,439237E-8	0,494063	-0,023249
817,000000	5,728515E-8	0,494668	-0,021347
818,000000	5,912457E-8	0,495273	-0,019811
819,000000	6,265108E-8	0,495879	-0,017150
820,000000	5,917457E-8	0,496484	-0,014931
821,000000	6,714753E-8	0,497090	-0,012282
822,000000	6,355826E-8	0,497695	-0,011272
823,000000	6,621593E-8	0,498301	-0,008964
824,000000	6,457491E-8	0,498906	-0,006267
825,000000	5,264468E-8	0,499512	-0,004820
826,000000	4,937536E-8	0,500117	-0,001956
827,000000	5,677878E-8	0,500723	0,001147
828,000000	4,748618E-8	0,501328	0,003288
829,000000	5,397244E-8	0,501934	0,005357
830,000000	5,366567E-8	0,502539	0,007342
831,000000	5,007430E-8	0,503145	0,010703
832,000000	5,610565E-8	0,503750	0,013585
833,000000	5,601704E-8	0,504355	0,016150
834,000000	5,941870E-8	0,504961	0,019528
835,000000	6,036659E-8	0,505566	0,022829
836,000000	5,677953E-8	0,506172	0,025394
837,000000	5,712299E-8	0,506777	0,027655
838,000000	5,513473E-8	0,507383	0,031290
839,000000	5,214814E-8	0,507988	0,033891
840,000000	5,891275E-8	0,508594	0,036014
841,000000	5,429989E-8	0,509199	0,039811
842,000000	5,369514E-8	0,509805	0,042801
843,000000	6,107813E-8	0,510410	0,044983
844,000000	7,341598E-8	0,511016	0,048254
845,000000	6,613281E-8	0,511621	0,051178
846,000000	6,302819E-8	0,512227	0,053474
847,000000	7,153792E-8	0,512832	0,055621
848,000000	7,160276E-8	0,513437	0,056775
849,000000	7,374106E-8	0,514043	0,058730
850,000000	6,672610E-8	0,514648	0,061576
851,000000	6,475212E-8	0,515254	0,063771
852,000000	7,128046E-8	0,515859	0,064524
853,000000	7,640045E-8	0,516465	0,067335
854,000000	7,286047E-8	0,517070	0,067622
855,000000	7,239291E-8	0,517676	0,070163
856,000000	7,188794E-8	0,518281	0,071753
857,000000	7,370162E-8	0,518887	0,072118
858,000000	7,861861E-8	0,519492	0,073063
859,000000	7,379424E-8	0,520098	0,073924
860,000000	6,241235E-8	0,520703	0,073517
861,000000	6,337614E-8	0,521309	0,074564
862,000000	5,622483E-8	0,521914	0,074348
863,000000	5,204102E-8	0,522520	0,074283
864,000000	5,246774E-8	0,523125	0,073165
865,000000	5,523978E-8	0,523730	0,072788
866,000000	4,442283E-8	0,524336	0,071472
867,000000	4,349409E-8	0,524941	0,070444
868,000000	4,739519E-8	0,525547	0,069260
869,000000	5,535476E-8	0,526152	0,067472
870,000000	6,438320E-8	0,526758	0,067155
871,000000	7,581386E-8	0,527363	0,064381
872,000000	8,245814E-8	0,527969	0,062413
873,000000	9,428555E-8	0,528574	0,060919
874,000000	1,037723E-7	0,529180	0,058808
875,000000	1,032420E-7	0,529785	0,056356
876,000000	9,604845E-8	0,530391	0,054126
877,000000	8,290431E-8	0,530996	0,053408
878,000000	7,325602E-8	0,531602	0,051220
879,000000	5,374752E-8	0,532207	0,048625
880,000000	4,965744E-8	0,532813	0,046024
881,000000	4,456245E-8	0,533418	0,044098
882,000000	3,264742E-8	0,534023	0,042645
883,000000	2,807423E-8	0,534629	0,040451
884,000000	1,190588E-8	0,535234	0,038693
885,000000	1,095676E-8	0,535840	0,036755
886,000000	1,357863E-8	0,536445	0,034543
887,000000	1,681784E-8	0,537051	0,031218
888,000000	2,297921E-8	0,537656	0,029963
889,000000	3,961219E-8	0,538262	0,028187
890,000000	3,963292E-8	0,538867	0,026471
891,000000	6,533853E-8	0,539473	0,024707
892,000000	7,516624E-8	0,540078	0,023014
893,000000	1,020966E-7	0,540684	0,021017
894,000000	1,193137E-7	0,541289	0,019881
895,000000	1,161098E-7	0,541895	0,018046
896,000000	1,447590E-7	0,542500	0,015349
897,000000	1,407332E-7	0,543105	0,013292
898,000000	1,488546E-7	0,543711	0,010475
899,000000	1,386311E-7	0,544316	0,008185
900,000000	1,613637E-7	0,544922	0,006098
901,000000	1,323295E-7	0,545527	0,005447
902,000000	1,404134E-7	0,546133	0,001674
903,000000	1,310348E-7	0,546738	0,001112
904,000000	1,406110E-7	0,547344	-0,001998
905,000000	1,499904E-7	0,547949	-0,004449
906,000000	1,446143E-7	0,548555	-0,007188
907,000000	1,476303E-7	0,549160	-0,009759
908,000000	1,522980E-7	0,549766	-0,011810
909,000000	1,420289E-7	0,550371	-0,014345
910,000000	1,550787E-7	0,550977	-0,016881
911,000000	1,451414E-7	0,551582	-0,019601
912,000000	1,575066E-7	0,552187	-0,021132
913,000000	1,617869E-7	0,552793	-0,023111
914,000000	1,765479E-7	0,553398	-0,026699
915,000000	1,832871E-7	0,554004	-0,028379
916,000000	1,980835E-7	0,554609	-0,031118
917,000000	2,152026E-7	0,555215	-0,033653
918,000000	2,209985E-7	0,555820	-0,036087
919,000000	2,562706E-7	0,556426	-0,037169
920,000000	2,871256E-7	0,557031	-0,039405
921,000000	3,314607E-7	0,557637	-0,041462
922,000000	3,203109E-7	0,558242	-0,044446
923,000000	3,679166E-7	0,558848	-0,046276
924,000000	3,346270E-7	0,559453	-0,048662
925,000000	3,475220E-7	0,560059	-0,050832
926,000000	3,366306E-7	0,560664	-0,051239
927,000000	3,472998E-7	0,561270	-0,054025
928,000000	3,436279E-7	0,561875	-0,054390
929,000000	3,218128E-7	0,562480	-0,056393
930,000000	3,109986E-7	0,563086	-0,056824
931,000000	2,810147E-7	0,563691	-0,058510
932,000000	2,780721E-7	0,564297	-0,060184
933,000000	2,804838E-7	0,564902	-0,060011
934,000000	2,376645E-7	0,565508	-0,061589
935,000000	2,395685E-7	0,566113	-0,061906
936,000000	2,082523E-7	0,566719	-0,062074
937,000000	2,240186E-7	0,567324	-0,063090
938,000000	2,111587E-7	0,567930	-0,063306
939,000000	2,662765E-7	0,568535	-0,064478
940,000000	2,848223E-7	0,569141	-0,064155
941,000000	3,574011E-7	0,569746	-0,064759
942,000000	4,197726E-7	0,570352	-0,063545
943,000000	4,720832E-7	0,570957	-0,064400
944,000000	6,453495E-7	0,571562	-0,063658
945,000000	6,981468E-7	0,572168	-0,062433
946,000000	8,289205E-7	0,572773	-0,062456
947,000000	1,025852E-6	0,573379	-0,060459
948,000000	1,010863E-6	0,573984	-0,060561
949,000000	9,997078E-7	0,574590	-0,058534
950,000000	1,063667E-6	0,575195	-0,056925
951,000000	1,098856E-6	0,575801	-0,054665
952,000000	1,240911E-6	0,576406	-0,052722
953,000000	1,284667E-6	0,577012	-0,050306
954,000000	1,383652E-6	0,577617	-0,049212
955,000000	1,589534E-6	0,578223	-0,045905
956,000000	1,345043E-6	0,578828	-0,042963
957,000000	1,296912E-6	0,579434	-0,040763
958,000000	1,152792E-6	0,580039	-0,038132
959,000000	6,028041E-7	0,580645	-0,036541
960,000000	6,046147E-7	0,581250	-0,033659
961,000000	7,869579E-7	0,581855	-0,031208
962,000000	7,863001E-7	0,582461	-0,029109
963,000000	6,751347E-7	0,583066	-0,025730
964,000000	5,856499E-7	0,583672	-0,022932
965,000000	5,830878E-7	0,584277	-0,020743
966,000000	6,313297E-7	0,584883	-0,018836
967,000000	7,929412E-7	0,585488	-0,015631
968,000000	5,470863E-7	0,586094	-0,013843
969,000000	3,593033E-6	0,586699	-0,011774
970,000000	7,945032E-6	0,587305	-0,008928
971,000000	6,775289E-6	0,587910	-0,007290
972,000000	4,280261E-6	0,588516	-0,005245
973,000000	9,415327E-6	0,589121	-0,003397
974,000000	6,363636E-6	0,589727	-0,001191
975,000000	2,484078E-6	0,590332	0,000896
976,000000	3,131486E-6	0,590938	0,001626
977,000000	4,158503E-6	0,591543	0,004490
978,000000	5,158953E-6	0,592148	0,006714
979,000000	6,989614E-6	0,592754	0,008006
980,000000	8,504754E-6	0,593359	0,010661
981,000000	2,351935E-5	0,593965	0,011612
982,000000	4,397468E-5	0,594570	0,012592
983,000000	8,859911E-6	0,595176	0,015725
984,000000	1,073011E-5	0,595781	0,016784
985,000000	1,199270E-5	0,596387	0,019421
986,000000	1,382773E-5	0,596992	0,021484
987,000000	1,529926E-5	0,597598	0,023439
988,000000	1,748740E-5	0,598203	0,024563
989,000000	2,114214E-5	0,598809	0,027846
990,000000	2,129707E-5	0,599414	0,028569
991,000000	3,396529E-5	0,600020	0,030525
992,000000	7,639217E-5	0,600625	0,032761
993,000000	0,001077	0,601230	0,034190
994,000000	0,000634	0,601836	0,035787
995,000000	0,000157	0,602441	0,038860
996,000000	9,788519E-5	0,603047	0,040427
997,000000	7,802295E-5	0,603652	0,043704
998,000000	6,949654E-5	0,604258	0,044774
999,000000	6,579705E-5	0,604863	0,047202
