LabVIEW Measurement	
Writer_Version	2
Reader_Version	2
Separator	Tab
Decimal_Separator	,
Multi_Headings	No
X_Columns	Multi
Time_Pref	Relative
Operator	eduardo.wisbecki
Date	2025/07/02
Time	13:59:30,179204268749717369
***End_of_Header***	
	
Channels	2			
Samples	2000		2000	
Date	2025/07/02		2025/07/02	
Time	13:59:31,3883695602416992187		13:59:30,179204268749717369	
Y_Unit_Label			m/s^2	
X_Dimension	Time		Time	
X0	0,0000000000000000E+0		0,0000000000000000E+0	
Delta_X	1,000000		0,000605	
***End_of_Header***				
X_Value	Untitled	X_Value	Acceleration	Comment
0,000000	1,436693E-5	0,000000	-0,058767
1,000000	7,936088E-7	0,000605	-0,055700
2,000000	7,282578E-7	0,001211	-0,052578
3,000000	8,811633E-7	0,001816	-0,049583
4,000000	9,937764E-7	0,002422	-0,048189
5,000000	1,159576E-6	0,003027	-0,044512
6,000000	1,321865E-6	0,003633	-0,041905
7,000000	1,670886E-6	0,004238	-0,038706
8,000000	2,454562E-6	0,004844	-0,035292
9,000000	3,375221E-6	0,005449	-0,032631
10,000000	6,243352E-6	0,006055	-0,028266
11,000000	1,217125E-5	0,006660	-0,025222
12,000000	2,449808E-5	0,007266	-0,022735
13,000000	0,000334	0,007871	-0,018537
14,000000	0,000185	0,008477	-0,015577
15,000000	2,209429E-5	0,009082	-0,010800
16,000000	1,125461E-5	0,009687	-0,007894
17,000000	5,897211E-6	0,010293	-0,004832
18,000000	3,124035E-6	0,010898	-0,000951
19,000000	2,129805E-6	0,011504	0,002583
20,000000	1,745811E-6	0,012109	0,006457
21,000000	1,274905E-6	0,012715	0,010481
22,000000	1,132241E-6	0,013320	0,014117
23,000000	9,736257E-7	0,013926	0,017394
24,000000	6,936245E-7	0,014531	0,021508
25,000000	6,048167E-7	0,015137	0,024701
26,000000	3,666875E-7	0,015742	0,028294
27,000000	4,997941E-7	0,016348	0,031446
28,000000	4,007212E-7	0,016953	0,036797
29,000000	3,847298E-7	0,017559	0,039871
30,000000	3,328702E-7	0,018164	0,042807
31,000000	3,616251E-7	0,018770	0,045312
32,000000	2,287580E-7	0,019375	0,048822
33,000000	2,552144E-7	0,019980	0,051997
34,000000	3,662959E-7	0,020586	0,055561
35,000000	3,452470E-7	0,021191	0,059244
36,000000	5,294311E-7	0,021797	0,061152
37,000000	4,776664E-7	0,022402	0,063406
38,000000	3,950003E-8	0,023008	0,066180
39,000000	1,311896E-7	0,023613	0,068925
40,000000	4,895498E-8	0,024219	0,071257
41,000000	8,930267E-8	0,024824	0,073356
42,000000	1,045048E-7	0,025430	0,075323
43,000000	8,463699E-8	0,026035	0,076842
44,000000	7,018593E-8	0,026641	0,079096
45,000000	7,244246E-8	0,027246	0,081081
46,000000	7,881194E-8	0,027852	0,082122
47,000000	7,718709E-8	0,028457	0,083461
48,000000	7,457002E-8	0,029062	0,085153
49,000000	6,434664E-8	0,029668	0,086146
50,000000	6,275731E-8	0,030273	0,086325
51,000000	5,336050E-8	0,030879	0,087306
52,000000	5,710856E-8	0,031484	0,088418
53,000000	8,592914E-8	0,032090	0,089351
54,000000	7,334751E-8	0,032695	0,088807
55,000000	6,175984E-8	0,033301	0,090409
56,000000	6,587018E-8	0,033906	0,089656
57,000000	4,330148E-8	0,034512	0,089907
58,000000	4,522954E-8	0,035117	0,089602
59,000000	4,098094E-8	0,035723	0,089907
60,000000	6,665978E-8	0,036328	0,088807
61,000000	5,534791E-8	0,036934	0,088627
62,000000	4,413168E-8	0,037539	0,087163
63,000000	3,898629E-8	0,038145	0,085859
64,000000	6,002922E-8	0,038750	0,084585
65,000000	4,695132E-8	0,039355	0,082528
66,000000	2,572367E-8	0,039961	0,080998
67,000000	1,083248E-8	0,040566	0,079084
68,000000	2,309728E-8	0,041172	0,077326
69,000000	2,322007E-8	0,041777	0,074534
70,000000	2,856161E-8	0,042383	0,072082
71,000000	2,601575E-8	0,042988	0,069344
72,000000	2,130164E-8	0,043594	0,066946
73,000000	2,705694E-8	0,044199	0,063801
74,000000	2,729604E-8	0,044805	0,062413
75,000000	2,613848E-8	0,045410	0,059172
76,000000	2,441421E-8	0,046016	0,056906
77,000000	2,632034E-8	0,046621	0,053588
78,000000	2,366855E-8	0,047227	0,051405
79,000000	2,123880E-8	0,047832	0,048888
80,000000	2,210942E-8	0,048438	0,045898
81,000000	2,088182E-8	0,049043	0,043046
82,000000	2,528271E-8	0,049648	0,039578
83,000000	1,908219E-8	0,050254	0,036827
84,000000	2,365145E-8	0,050859	0,033592
85,000000	2,286482E-8	0,051465	0,031888
86,000000	2,240782E-8	0,052070	0,028139
87,000000	1,823265E-8	0,052676	0,025036
88,000000	1,859557E-8	0,053281	0,021884
89,000000	2,290340E-8	0,053887	0,019158
90,000000	2,275643E-8	0,054492	0,015187
91,000000	1,832724E-8	0,055098	0,012604
92,000000	1,802193E-8	0,055703	0,008245
93,000000	1,454096E-8	0,056309	0,004388
94,000000	1,478477E-8	0,056914	0,001985
95,000000	1,595192E-8	0,057520	-0,002357
96,000000	1,717094E-8	0,058125	-0,004503
97,000000	1,501968E-8	0,058730	-0,008157
98,000000	1,213765E-8	0,059336	-0,011673
99,000000	1,422286E-8	0,059941	-0,014477
100,000000	1,459932E-8	0,060547	-0,017909
101,000000	1,546835E-8	0,061152	-0,021078
102,000000	1,394886E-8	0,061758	-0,024648
103,000000	1,445755E-8	0,062363	-0,028702
104,000000	1,213759E-8	0,062969	-0,031339
105,000000	1,316341E-8	0,063574	-0,034443
106,000000	1,293322E-8	0,064180	-0,037151
107,000000	9,940000E-9	0,064785	-0,041289
108,000000	1,124472E-8	0,065391	-0,043430
109,000000	1,225804E-8	0,065996	-0,047125
110,000000	1,178267E-8	0,066602	-0,048913
111,000000	1,266858E-8	0,067207	-0,051323
112,000000	9,722488E-9	0,067812	-0,054019
113,000000	1,409398E-8	0,068418	-0,056896
114,000000	1,082711E-8	0,069023	-0,059102
115,000000	1,404997E-8	0,069629	-0,061159
116,000000	1,044614E-8	0,070234	-0,063126
117,000000	1,289835E-8	0,070840	-0,065237
118,000000	1,264041E-8	0,071445	-0,066947
119,000000	1,143488E-8	0,072051	-0,069763
120,000000	9,470268E-9	0,072656	-0,071139
121,000000	9,820772E-9	0,073262	-0,072980
122,000000	1,175953E-8	0,073867	-0,074469
123,000000	1,093036E-8	0,074473	-0,075157
124,000000	8,062341E-9	0,075078	-0,076466
125,000000	7,973543E-9	0,075684	-0,077064
126,000000	6,626173E-9	0,076289	-0,078009
127,000000	1,016084E-8	0,076895	-0,078266
128,000000	6,853399E-9	0,077500	-0,078966
129,000000	9,374864E-9	0,078105	-0,079295
130,000000	8,674460E-9	0,078711	-0,079313
131,000000	1,013567E-8	0,079316	-0,079755
132,000000	9,953099E-9	0,079922	-0,079486
133,000000	9,046779E-9	0,080527	-0,078135
134,000000	8,250396E-9	0,081133	-0,080180
135,000000	7,891008E-9	0,081738	-0,078739
136,000000	7,899395E-9	0,082344	-0,077573
137,000000	6,969896E-9	0,082949	-0,076227
138,000000	7,034865E-9	0,083555	-0,075809
139,000000	7,275328E-9	0,084160	-0,074206
140,000000	6,937082E-9	0,084766	-0,072687
141,000000	5,930635E-9	0,085371	-0,071509
142,000000	6,350286E-9	0,085977	-0,069763
143,000000	8,365567E-9	0,086582	-0,066851
144,000000	7,104500E-9	0,087188	-0,064693
145,000000	6,022231E-9	0,087793	-0,062397
146,000000	6,980455E-9	0,088398	-0,061039
147,000000	6,604803E-9	0,089004	-0,058187
148,000000	7,953150E-9	0,089609	-0,055299
149,000000	6,560257E-9	0,090215	-0,053260
150,000000	6,882787E-9	0,090820	-0,050163
151,000000	7,030481E-9	0,091426	-0,047322
152,000000	7,616750E-9	0,092031	-0,044841
153,000000	8,171180E-9	0,092637	-0,041749
154,000000	7,494181E-9	0,093242	-0,039226
155,000000	5,753046E-9	0,093848	-0,037247
156,000000	4,779807E-9	0,094453	-0,033922
157,000000	7,122216E-9	0,095059	-0,030478
158,000000	5,133482E-9	0,095664	-0,028325
159,000000	5,173232E-9	0,096270	-0,024606
160,000000	5,284065E-9	0,096875	-0,021497
161,000000	5,503588E-9	0,097480	-0,018902
162,000000	4,846400E-9	0,098086	-0,015434
163,000000	6,509845E-9	0,098691	-0,013323
164,000000	5,321106E-9	0,099297	-0,008868
165,000000	4,376708E-9	0,099902	-0,006142
166,000000	3,947352E-9	0,100508	-0,002901
167,000000	5,175978E-9	0,101113	0,000143
168,000000	4,807248E-9	0,101719	0,003880
169,000000	5,586622E-9	0,102324	0,006385
170,000000	6,213905E-9	0,102930	0,010153
171,000000	3,753902E-9	0,103535	0,013065
172,000000	5,484978E-9	0,104141	0,016180
173,000000	4,877344E-9	0,104746	0,019690
174,000000	4,608985E-9	0,105352	0,022883
175,000000	4,554442E-9	0,105957	0,025657
176,000000	4,467164E-9	0,106563	0,028868
177,000000	5,413649E-9	0,107168	0,031990
178,000000	3,454360E-9	0,107773	0,034782
179,000000	2,501387E-9	0,108379	0,037688
180,000000	5,444083E-9	0,108984	0,039697
181,000000	4,210704E-9	0,109590	0,042902
182,000000	3,902551E-9	0,110195	0,045862
183,000000	3,132275E-9	0,110801	0,048218
184,000000	3,542870E-9	0,111406	0,050383
185,000000	3,956882E-9	0,112012	0,052171
186,000000	4,501608E-9	0,112617	0,055220
187,000000	3,201018E-9	0,113223	0,056709
188,000000	4,254919E-9	0,113828	0,059525
189,000000	3,600691E-9	0,114434	0,061194
190,000000	4,315025E-9	0,115039	0,063651
191,000000	3,498669E-9	0,115645	0,065523
192,000000	5,404124E-9	0,116250	0,066862
193,000000	4,834930E-9	0,116855	0,068805
194,000000	3,359107E-9	0,117461	0,070599
195,000000	4,039058E-9	0,118066	0,071179
196,000000	3,652342E-9	0,118672	0,073541
197,000000	2,996195E-9	0,119277	0,074624
198,000000	5,419614E-9	0,119883	0,075760
199,000000	4,838589E-9	0,120488	0,076328
200,000000	4,340138E-9	0,121094	0,077326
201,000000	3,374686E-9	0,121699	0,077727
202,000000	3,783239E-9	0,122305	0,080196
203,000000	2,594300E-9	0,122910	0,079808
204,000000	4,014769E-9	0,123516	0,080585
205,000000	4,261216E-9	0,124121	0,080388
206,000000	3,950691E-9	0,124727	0,080944
207,000000	4,038176E-9	0,125332	0,080860
208,000000	3,013689E-9	0,125938	0,081548
209,000000	2,528844E-9	0,126543	0,081051
210,000000	2,484760E-9	0,127148	0,080854
211,000000	3,308209E-9	0,127754	0,079467
212,000000	3,601391E-9	0,128359	0,079030
213,000000	2,947519E-9	0,128965	0,078277
214,000000	2,776377E-9	0,129570	0,076513
215,000000	3,139972E-9	0,130176	0,075359
216,000000	2,449597E-9	0,130781	0,075269
217,000000	3,029729E-9	0,131387	0,072196
218,000000	3,850269E-9	0,131992	0,069906
219,000000	4,300746E-9	0,132598	0,068817
220,000000	3,439320E-9	0,133203	0,066743
221,000000	2,884548E-9	0,133809	0,064231
222,000000	2,717415E-9	0,134414	0,061642
223,000000	2,722292E-9	0,135020	0,059651
224,000000	2,236660E-9	0,135625	0,056709
225,000000	3,501430E-9	0,136230	0,053982
226,000000	2,077314E-9	0,136836	0,051579
227,000000	2,356313E-9	0,137441	0,048427
228,000000	2,138270E-9	0,138047	0,046335
229,000000	3,509681E-9	0,138652	0,043046
230,000000	1,785794E-9	0,139258	0,040295
231,000000	1,991988E-9	0,139863	0,038519
232,000000	2,371998E-9	0,140469	0,035272
233,000000	2,948259E-9	0,141074	0,032384
234,000000	3,221181E-9	0,141680	0,028504
235,000000	3,088283E-9	0,142285	0,026805
236,000000	1,917983E-9	0,142891	0,024085
237,000000	2,591543E-9	0,143496	0,020419
238,000000	1,826036E-9	0,144102	0,018040
239,000000	3,183512E-9	0,144707	0,015080
240,000000	2,044432E-9	0,145313	0,012138
241,000000	2,178010E-9	0,145918	0,008825
242,000000	1,944550E-9	0,146523	0,005985
243,000000	2,060384E-9	0,147129	0,003450
244,000000	3,000374E-9	0,147734	-6,637861E-5
245,000000	1,608359E-9	0,148340	-0,003110
246,000000	2,451990E-9	0,148945	-0,004988
247,000000	1,658314E-9	0,149551	-0,008844
248,000000	3,758655E-9	0,150156	-0,012277
249,000000	2,617011E-9	0,150762	-0,015631
250,000000	2,450862E-9	0,151367	-0,017527
251,000000	1,282225E-9	0,151973	-0,020468
252,000000	2,758476E-9	0,152578	-0,024074
253,000000	1,973634E-9	0,153184	-0,026167
254,000000	2,154402E-9	0,153789	-0,029563
255,000000	3,085155E-9	0,154395	-0,032170
256,000000	2,450379E-9	0,155000	-0,034897
257,000000	2,291731E-9	0,155605	-0,037127
258,000000	1,652757E-9	0,156211	-0,040033
259,000000	3,269311E-9	0,156816	-0,041696
260,000000	2,276177E-9	0,157422	-0,044679
261,000000	2,567560E-9	0,158027	-0,047059
262,000000	2,581632E-9	0,158633	-0,048536
263,000000	2,158766E-9	0,159238	-0,051095
264,000000	1,707346E-9	0,159844	-0,053236
265,000000	1,829517E-9	0,160449	-0,055526
266,000000	2,222917E-9	0,161055	-0,055999
267,000000	1,575958E-9	0,161660	-0,058857
268,000000	3,305205E-9	0,162266	-0,059389
269,000000	1,412356E-9	0,162871	-0,061805
270,000000	2,334963E-9	0,163477	-0,063126
271,000000	1,675455E-9	0,164082	-0,063102
272,000000	2,031596E-9	0,164687	-0,064932
273,000000	2,703744E-9	0,165293	-0,066409
274,000000	1,918487E-9	0,165898	-0,066618
275,000000	2,373357E-9	0,166504	-0,067706
276,000000	1,213683E-9	0,167109	-0,069500
277,000000	3,061861E-9	0,167715	-0,069871
278,000000	1,723733E-9	0,168320	-0,069435
279,000000	1,058689E-9	0,168926	-0,069464
280,000000	2,619644E-9	0,169531	-0,070648
281,000000	1,405772E-9	0,170137	-0,070708
282,000000	1,036733E-9	0,170742	-0,070487
283,000000	1,954078E-9	0,171348	-0,071282
284,000000	2,272368E-9	0,171953	-0,070170
285,000000	2,102294E-9	0,172559	-0,070086
286,000000	1,908065E-9	0,173164	-0,069393
287,000000	1,489525E-9	0,173770	-0,068723
288,000000	1,390535E-9	0,174375	-0,067748
289,000000	1,052146E-9	0,174980	-0,067264
290,000000	2,391518E-9	0,175586	-0,066517
291,000000	1,177895E-9	0,176191	-0,064286
292,000000	2,027512E-9	0,176797	-0,063664
293,000000	1,181980E-9	0,177402	-0,061829
294,000000	2,121030E-9	0,178008	-0,061057
295,000000	1,769296E-9	0,178613	-0,057864
296,000000	1,252157E-9	0,179219	-0,056112
297,000000	2,008646E-9	0,179824	-0,053978
298,000000	1,524547E-9	0,180430	-0,051933
299,000000	1,555349E-9	0,181035	-0,049463
300,000000	2,459366E-9	0,181641	-0,047197
301,000000	1,505243E-9	0,182246	-0,045068
302,000000	1,334205E-9	0,182852	-0,042688
303,000000	1,365561E-9	0,183457	-0,039118
304,000000	1,452830E-9	0,184062	-0,036350
305,000000	1,287581E-9	0,184668	-0,033456
306,000000	1,347838E-9	0,185273	-0,031542
307,000000	1,257072E-9	0,185879	-0,027985
308,000000	1,453055E-9	0,186484	-0,024570
309,000000	1,342910E-9	0,187090	-0,023512
310,000000	1,651824E-9	0,187695	-0,019524
311,000000	2,540952E-9	0,188301	-0,016600
312,000000	1,901873E-9	0,188906	-0,014160
313,000000	2,413816E-9	0,189512	-0,010261
314,000000	2,033396E-9	0,190117	-0,008569
315,000000	2,005385E-9	0,190723	-0,004790
316,000000	1,494422E-9	0,191328	-0,001794
317,000000	1,727551E-9	0,191934	0,000723
318,000000	1,567862E-9	0,192539	0,004783
319,000000	1,295189E-9	0,193145	0,007486
320,000000	1,644275E-9	0,193750	0,010595
321,000000	2,075300E-9	0,194355	0,014177
322,000000	2,190603E-9	0,194961	0,016162
323,000000	1,809737E-9	0,195566	0,019235
324,000000	1,898110E-9	0,196172	0,021878
325,000000	9,548607E-10	0,196777	0,024946
326,000000	2,042484E-9	0,197383	0,026698
327,000000	2,610595E-9	0,197988	0,031768
328,000000	1,074391E-9	0,198594	0,033377
329,000000	2,186578E-9	0,199199	0,035685
330,000000	7,946924E-10	0,199805	0,038340
331,000000	1,155443E-9	0,200410	0,040229
332,000000	1,587358E-9	0,201016	0,041814
333,000000	1,850581E-9	0,201621	0,045850
334,000000	2,261314E-9	0,202227	0,047148
335,000000	1,625345E-9	0,202832	0,049145
336,000000	1,259687E-9	0,203437	0,051686
337,000000	5,811983E-10	0,204043	0,052559
338,000000	1,294095E-9	0,204648	0,055370
339,000000	1,634214E-9	0,205254	0,056864
340,000000	1,684831E-9	0,205859	0,058652
341,000000	1,355574E-9	0,206465	0,059238
342,000000	1,806641E-9	0,207070	0,061546
343,000000	1,494708E-9	0,207676	0,063262
344,000000	1,932374E-9	0,208281	0,064213
345,000000	1,588051E-9	0,208887	0,064715
346,000000	1,071165E-9	0,209492	0,066174
347,000000	9,651598E-10	0,210098	0,067484
348,000000	1,321979E-9	0,210703	0,068213
349,000000	1,578822E-9	0,211309	0,069858
350,000000	1,390805E-9	0,211914	0,070253
351,000000	1,048831E-9	0,212520	0,071048
352,000000	1,708697E-9	0,213125	0,071078
353,000000	7,009154E-10	0,213730	0,071909
354,000000	1,489530E-9	0,214336	0,072573
355,000000	7,969109E-10	0,214941	0,072208
356,000000	1,770161E-9	0,215547	0,072513
357,000000	1,258605E-9	0,216152	0,071891
358,000000	3,793175E-10	0,216758	0,072375
359,000000	8,782764E-10	0,217363	0,072411
360,000000	2,036150E-9	0,217969	0,071544
361,000000	2,131945E-10	0,218574	0,071628
362,000000	9,904186E-10	0,219180	0,070396
363,000000	1,869323E-9	0,219785	0,069547
364,000000	1,175242E-9	0,220391	0,069732
365,000000	2,534970E-9	0,220996	0,067735
366,000000	1,534595E-9	0,221602	0,066563
367,000000	7,803092E-10	0,222207	0,064985
368,000000	1,442338E-9	0,222812	0,064207
369,000000	2,254487E-9	0,223418	0,062688
370,000000	1,785133E-9	0,224023	0,061152
371,000000	2,198960E-9	0,224629	0,058407
372,000000	8,856590E-10	0,225234	0,057181
373,000000	1,891315E-9	0,225840	0,055334
374,000000	8,532521E-10	0,226445	0,052475
375,000000	1,066245E-9	0,227051	0,049785
376,000000	8,529609E-10	0,227656	0,049175
377,000000	1,421852E-9	0,228262	0,045922
378,000000	9,169250E-10	0,228867	0,043100
379,000000	4,460066E-10	0,229473	0,040594
380,000000	1,062009E-9	0,230078	0,037862
381,000000	1,093518E-9	0,230684	0,035536
382,000000	1,826325E-9	0,231289	0,033317
383,000000	1,205685E-9	0,231895	0,029993
384,000000	6,660566E-10	0,232500	0,028205
385,000000	1,147990E-9	0,233105	0,025693
386,000000	1,205923E-9	0,233711	0,022997
387,000000	1,485365E-9	0,234316	0,020587
388,000000	2,036044E-9	0,234922	0,017561
389,000000	9,384542E-10	0,235527	0,015875
390,000000	1,464794E-9	0,236133	0,012616
391,000000	6,884402E-10	0,236738	0,009543
392,000000	1,088981E-9	0,237344	0,007659
393,000000	1,943411E-9	0,237949	0,003318
394,000000	1,340421E-9	0,238555	0,000442
395,000000	6,849045E-10	0,239160	-0,001693
396,000000	1,031232E-9	0,239766	-0,005017
397,000000	1,128243E-9	0,240371	-0,007660
398,000000	1,249774E-9	0,240977	-0,011057
399,000000	4,274558E-10	0,241582	-0,012767
400,000000	1,887573E-9	0,242187	-0,016976
401,000000	8,362369E-10	0,242793	-0,018800
402,000000	1,057441E-9	0,243398	-0,022053
403,000000	9,561088E-10	0,244004	-0,023877
404,000000	1,119383E-9	0,244609	-0,027446
405,000000	7,344892E-10	0,245215	-0,029767
406,000000	1,247122E-9	0,245820	-0,031949
407,000000	2,257188E-9	0,246426	-0,034813
408,000000	2,037984E-10	0,247031	-0,036649
409,000000	6,743998E-10	0,247637	-0,038849
410,000000	1,224344E-9	0,248242	-0,040960
411,000000	8,977556E-10	0,248848	-0,043244
412,000000	1,332419E-9	0,249453	-0,044793
413,000000	6,359418E-10	0,250059	-0,046485
414,000000	9,151964E-10	0,250664	-0,048865
415,000000	1,190790E-9	0,251270	-0,050312
416,000000	1,149537E-9	0,251875	-0,051400
417,000000	8,803106E-10	0,252480	-0,053541
418,000000	9,583037E-10	0,253086	-0,054390
419,000000	8,040855E-10	0,253691	-0,055568
420,000000	5,837893E-10	0,254297	-0,057595
421,000000	1,172870E-9	0,254902	-0,057876
422,000000	4,884083E-10	0,255508	-0,059323
423,000000	9,945274E-10	0,256113	-0,059772
424,000000	4,725201E-10	0,256719	-0,060830
425,000000	3,412695E-10	0,257324	-0,061416
426,000000	5,365018E-10	0,257930	-0,061643
427,000000	7,781851E-10	0,258535	-0,062199
428,000000	6,646889E-10	0,259141	-0,063162
429,000000	1,185025E-9	0,259746	-0,063282
430,000000	9,980024E-10	0,260352	-0,062421
431,000000	1,381850E-9	0,260957	-0,063748
432,000000	7,301396E-10	0,261562	-0,062690
433,000000	2,320876E-9	0,262168	-0,063479
434,000000	6,576288E-10	0,262773	-0,063748
435,000000	6,878509E-10	0,263379	-0,061990
436,000000	1,603414E-9	0,263984	-0,061847
437,000000	8,096535E-10	0,264590	-0,061876
438,000000	7,851781E-10	0,265195	-0,060322
439,000000	1,264761E-9	0,265801	-0,059604
440,000000	1,010715E-9	0,266406	-0,058032
441,000000	7,172629E-10	0,267012	-0,057751
442,000000	1,215402E-9	0,267617	-0,056052
443,000000	1,722249E-9	0,268223	-0,055054
444,000000	1,078133E-9	0,268828	-0,054061
445,000000	8,256562E-10	0,269434	-0,052375
446,000000	5,270572E-10	0,270039	-0,050193
447,000000	9,838468E-10	0,270645	-0,048560
448,000000	8,557262E-10	0,271250	-0,046706
449,000000	7,385284E-10	0,271855	-0,044919
450,000000	9,701686E-10	0,272461	-0,043196
451,000000	3,681852E-10	0,273066	-0,041134
452,000000	4,211027E-10	0,273672	-0,038401
453,000000	8,461379E-10	0,274277	-0,035298
454,000000	1,552959E-9	0,274883	-0,034747
455,000000	2,354166E-10	0,275488	-0,031094
456,000000	1,322423E-9	0,276094	-0,029695
457,000000	7,747123E-10	0,276699	-0,027076
458,000000	1,518373E-9	0,277305	-0,024361
459,000000	9,713453E-10	0,277910	-0,021515
460,000000	6,189441E-10	0,278516	-0,019924
461,000000	9,834120E-10	0,279121	-0,016307
462,000000	3,873077E-10	0,279727	-0,014429
463,000000	1,379673E-9	0,280332	-0,012235
464,000000	1,522056E-9	0,280938	-0,008635
465,000000	1,147065E-9	0,281543	-0,006447
466,000000	1,333851E-9	0,282148	-0,003654
467,000000	9,894884E-10	0,282754	-0,001143
468,000000	4,474203E-10	0,283359	0,001183
469,000000	1,114429E-9	0,283965	0,004173
470,000000	1,361196E-9	0,284570	0,006900
471,000000	9,555716E-10	0,285176	0,009112
472,000000	4,219754E-10	0,285781	0,012897
473,000000	6,624290E-10	0,286387	0,014392
474,000000	6,419379E-10	0,286992	0,017938
475,000000	4,696325E-10	0,287598	0,020545
476,000000	9,408962E-10	0,288203	0,023989
477,000000	1,436620E-9	0,288809	0,025305
478,000000	9,754145E-10	0,289414	0,028151
479,000000	1,266001E-9	0,290020	0,030064
480,000000	4,571288E-10	0,290625	0,033383
481,000000	1,140292E-9	0,291230	0,035948
482,000000	1,414400E-9	0,291836	0,038262
483,000000	8,099987E-10	0,292441	0,040146
484,000000	1,467954E-9	0,293047	0,042645
485,000000	5,852091E-10	0,293652	0,045049
486,000000	5,604849E-10	0,294258	0,046849
487,000000	7,454698E-10	0,294863	0,049229
488,000000	4,382176E-10	0,295469	0,050819
489,000000	1,275475E-9	0,296074	0,052942
490,000000	1,030807E-9	0,296680	0,054192
491,000000	7,455024E-10	0,297285	0,056595
492,000000	1,824930E-9	0,297891	0,056757
493,000000	4,255677E-10	0,298496	0,058616
494,000000	6,234881E-10	0,299102	0,060129
495,000000	5,528816E-10	0,299707	0,060978
496,000000	4,621508E-10	0,300312	0,062013
497,000000	2,582312E-10	0,300918	0,063376
498,000000	1,209932E-9	0,301523	0,064321
499,000000	1,053642E-9	0,302129	0,065744
500,000000	8,400125E-10	0,302734	0,065182
501,000000	8,009974E-10	0,303340	0,066671
502,000000	4,560745E-10	0,303945	0,066306
503,000000	7,235258E-10	0,304551	0,067394
504,000000	7,894819E-10	0,305156	0,068154
505,000000	1,366457E-9	0,305762	0,067125
506,000000	9,279217E-10	0,306367	0,068542
507,000000	6,760252E-10	0,306973	0,067867
508,000000	1,278154E-9	0,307578	0,066743
509,000000	1,156339E-9	0,308184	0,066246
510,000000	3,287387E-10	0,308789	0,067370
511,000000	9,085826E-10	0,309395	0,066163
512,000000	1,222158E-9	0,310000	0,064931
513,000000	4,416235E-10	0,310605	0,064739
514,000000	7,447190E-10	0,311211	0,063896
515,000000	6,111934E-10	0,311816	0,062108
516,000000	5,949490E-10	0,312422	0,061367
517,000000	5,257766E-10	0,313027	0,060643
518,000000	8,047874E-10	0,313633	0,059812
519,000000	4,716184E-10	0,314238	0,057558
520,000000	6,019072E-10	0,314844	0,055262
521,000000	6,955567E-10	0,315449	0,054269
522,000000	8,687706E-10	0,316055	0,051931
523,000000	1,451139E-9	0,316660	0,050430
524,000000	2,027235E-9	0,317266	0,047752
525,000000	1,832778E-9	0,317871	0,045916
526,000000	9,661119E-10	0,318477	0,043680
527,000000	1,444901E-9	0,319082	0,041880
528,000000	6,040730E-10	0,319688	0,039745
529,000000	8,276290E-10	0,320293	0,037832
530,000000	9,475133E-10	0,320898	0,035225
531,000000	2,040177E-9	0,321504	0,032576
532,000000	5,955851E-10	0,322109	0,031212
533,000000	8,267850E-10	0,322715	0,028061
534,000000	8,342252E-10	0,323320	0,025657
535,000000	8,889603E-10	0,323926	0,024360
536,000000	7,970911E-10	0,324531	0,020593
537,000000	5,001953E-10	0,325137	0,018889
538,000000	7,582483E-10	0,325742	0,016084
539,000000	6,612011E-10	0,326348	0,014290
540,000000	6,551282E-10	0,326953	0,011378
541,000000	3,310714E-10	0,327559	0,008676
542,000000	3,245538E-10	0,328164	0,006015
543,000000	8,298805E-10	0,328770	0,003910
544,000000	1,048339E-9	0,329375	0,001716
545,000000	3,496016E-10	0,329980	-0,001346
546,000000	2,839041E-10	0,330586	-0,003618
547,000000	6,038583E-10	0,331191	-0,006387
548,000000	7,927320E-10	0,331797	-0,008306
549,000000	3,776778E-10	0,332402	-0,010566
550,000000	9,735857E-10	0,333008	-0,013765
551,000000	1,458572E-9	0,333613	-0,015637
552,000000	9,580169E-10	0,334219	-0,017981
553,000000	5,129063E-10	0,334824	-0,020140
554,000000	5,193254E-10	0,335430	-0,022986
555,000000	7,105841E-10	0,336035	-0,024122
556,000000	1,307933E-10	0,336641	-0,026340
557,000000	6,262279E-10	0,337246	-0,029713
558,000000	7,705410E-10	0,337852	-0,030717
559,000000	8,803568E-10	0,338457	-0,033277
560,000000	2,657691E-10	0,339062	-0,034532
561,000000	2,799851E-10	0,339668	-0,037127
562,000000	7,748672E-10	0,340273	-0,039316
563,000000	7,390093E-10	0,340879	-0,041140
564,000000	6,606761E-10	0,341484	-0,043113
565,000000	1,129550E-9	0,342090	-0,044255
566,000000	1,527942E-9	0,342695	-0,046473
567,000000	1,229905E-10	0,343301	-0,047735
568,000000	6,238653E-10	0,343906	-0,048153
569,000000	1,114921E-9	0,344512	-0,050193
570,000000	3,516870E-10	0,345117	-0,052214
571,000000	8,527789E-10	0,345723	-0,052261
572,000000	3,958887E-10	0,346328	-0,053547
573,000000	1,882955E-10	0,346934	-0,054755
574,000000	2,896888E-10	0,347539	-0,056017
575,000000	5,876017E-10	0,348145	-0,056979
576,000000	1,360512E-10	0,348750	-0,056716
577,000000	4,092280E-10	0,349355	-0,058247
578,000000	4,803426E-10	0,349961	-0,058743
579,000000	5,900147E-10	0,350566	-0,058755
580,000000	9,783766E-10	0,351172	-0,059311
581,000000	7,237186E-10	0,351777	-0,059461
582,000000	5,390696E-10	0,352383	-0,058020
583,000000	1,619696E-10	0,352988	-0,059084
584,000000	7,284742E-10	0,353594	-0,057858
585,000000	1,398823E-10	0,354199	-0,058588
586,000000	6,545837E-10	0,354805	-0,058426
587,000000	2,523001E-10	0,355410	-0,057493
588,000000	2,927514E-10	0,356016	-0,056985
589,000000	4,432914E-10	0,356621	-0,055885
590,000000	1,200602E-9	0,357227	-0,054827
591,000000	2,509256E-10	0,357832	-0,054665
592,000000	7,428106E-10	0,358438	-0,052602
593,000000	8,574846E-10	0,359043	-0,051412
594,000000	1,394989E-9	0,359648	-0,049786
595,000000	8,145578E-10	0,360254	-0,047436
596,000000	5,977044E-10	0,360859	-0,047107
597,000000	6,805447E-10	0,361465	-0,044159
598,000000	4,287146E-10	0,362070	-0,042658
599,000000	5,024354E-10	0,362676	-0,040577
600,000000	1,337227E-9	0,363281	-0,039250
601,000000	3,950134E-10	0,363887	-0,036099
602,000000	1,959150E-10	0,364492	-0,034580
603,000000	3,417163E-10	0,365098	-0,032541
604,000000	1,131992E-9	0,365703	-0,030006
605,000000	8,747943E-10	0,366309	-0,027985
606,000000	3,852611E-10	0,366914	-0,026227
607,000000	1,904875E-10	0,367520	-0,023339
608,000000	1,299645E-9	0,368125	-0,021204
609,000000	1,797629E-9	0,368730	-0,018160
610,000000	2,314059E-9	0,369336	-0,016570
611,000000	3,763783E-10	0,369941	-0,013179
612,000000	1,971002E-10	0,370547	-0,011762
613,000000	1,191768E-9	0,371152	-0,009652
614,000000	1,890324E-10	0,371758	-0,007768
615,000000	1,592153E-9	0,372363	-0,004623
616,000000	3,137061E-10	0,372969	-0,001800
617,000000	1,337547E-9	0,373574	0,000992
618,000000	4,711271E-10	0,374180	0,003210
619,000000	1,860897E-10	0,374785	0,004974
620,000000	5,931850E-10	0,375391	0,007665
621,000000	3,627772E-10	0,375996	0,010733
622,000000	7,710491E-10	0,376602	0,012628
623,000000	4,120591E-10	0,377207	0,014404
624,000000	5,973450E-10	0,377812	0,018285
625,000000	2,074573E-10	0,378418	0,018751
626,000000	1,332214E-9	0,379023	0,021866
627,000000	4,443210E-10	0,379629	0,023529
628,000000	1,635887E-10	0,380234	0,026004
629,000000	2,854584E-10	0,380840	0,028671
630,000000	8,413945E-10	0,381445	0,030309
631,000000	3,981542E-10	0,382051	0,032713
632,000000	3,139097E-10	0,382656	0,035428
633,000000	2,945711E-10	0,383262	0,036552
634,000000	2,957823E-10	0,383867	0,037694
635,000000	7,643282E-10	0,384473	0,039996
636,000000	9,452810E-10	0,385078	0,041413
637,000000	4,220424E-10	0,385684	0,043405
638,000000	4,484896E-10	0,386289	0,045324
639,000000	3,018055E-10	0,386895	0,046340
640,000000	3,147718E-10	0,387500	0,047620
641,000000	7,680858E-10	0,388105	0,049211
642,000000	2,220583E-10	0,388711	0,050233
643,000000	5,350806E-10	0,389316	0,052266
644,000000	6,410726E-10	0,389922	0,053618
645,000000	7,323609E-10	0,390527	0,053618
646,000000	7,290992E-10	0,391133	0,055292
647,000000	8,712277E-10	0,391738	0,056751
648,000000	2,691435E-10	0,392344	0,056745
649,000000	2,613954E-10	0,392949	0,058042
650,000000	5,339503E-10	0,393555	0,058718
651,000000	6,950029E-10	0,394160	0,058826
652,000000	1,984237E-10	0,394766	0,059352
653,000000	1,025302E-9	0,395371	0,061373
654,000000	2,963289E-10	0,395977	0,060727
655,000000	1,643285E-10	0,396582	0,062013
656,000000	2,888331E-10	0,397187	0,061253
657,000000	7,654984E-10	0,397793	0,060907
658,000000	6,716494E-10	0,398398	0,061283
659,000000	1,752419E-10	0,399004	0,061738
660,000000	5,451474E-10	0,399609	0,062431
661,000000	4,154781E-10	0,400215	0,061768
662,000000	4,072214E-10	0,400820	0,061253
663,000000	4,677050E-10	0,401426	0,061534
664,000000	1,135890E-10	0,402031	0,059986
665,000000	1,614960E-10	0,402637	0,059280
666,000000	2,069360E-10	0,403242	0,059226
667,000000	5,362153E-10	0,403848	0,057498
668,000000	4,591899E-10	0,404453	0,056147
669,000000	8,778550E-10	0,405059	0,055531
670,000000	7,952993E-10	0,405664	0,054341
671,000000	1,317984E-10	0,406270	0,052948
672,000000	5,646273E-10	0,406875	0,050353
673,000000	8,644253E-10	0,407480	0,049205
674,000000	5,219033E-11	0,408086	0,046400
675,000000	6,578653E-10	0,408691	0,044864
676,000000	8,996360E-10	0,409297	0,042340
677,000000	3,868300E-10	0,409902	0,041252
678,000000	8,130370E-10	0,410508	0,038693
679,000000	2,802248E-10	0,411113	0,036426
680,000000	6,019395E-10	0,411719	0,033520
681,000000	4,725998E-10	0,412324	0,031374
682,000000	6,733358E-10	0,412930	0,029957
683,000000	2,659625E-10	0,413535	0,027188
684,000000	1,926965E-10	0,414141	0,024886
685,000000	3,386816E-10	0,414746	0,021567
686,000000	4,840729E-10	0,415352	0,020192
687,000000	7,484769E-10	0,415957	0,016927
688,000000	1,084867E-9	0,416563	0,015068
689,000000	8,678617E-10	0,417168	0,013005
690,000000	5,025959E-10	0,417773	0,009866
691,000000	3,651074E-10	0,418379	0,008688
692,000000	2,766011E-10	0,418984	0,006571
693,000000	6,283696E-10	0,419590	0,002929
694,000000	4,356533E-10	0,420195	0,001721
695,000000	6,442281E-11	0,420801	-0,001191
696,000000	9,241520E-10	0,421406	-0,003367
697,000000	4,440323E-10	0,422012	-0,005663
698,000000	6,268776E-10	0,422617	-0,007888
699,000000	3,688054E-10	0,423223	-0,010273
700,000000	5,575241E-10	0,423828	-0,012312
701,000000	8,481600E-10	0,424434	-0,014274
702,000000	3,862232E-9	0,425039	-0,016749
703,000000	4,039918E-10	0,425645	-0,019111
704,000000	8,466468E-10	0,426250	-0,020337
705,000000	4,507076E-10	0,426855	-0,023362
706,000000	9,690719E-10	0,427461	-0,024600
707,000000	7,808796E-10	0,428066	-0,027739
708,000000	2,511165E-10	0,428672	-0,029360
709,000000	6,373902E-10	0,429277	-0,030741
710,000000	7,426081E-10	0,429883	-0,032750
711,000000	7,240231E-10	0,430488	-0,034789
712,000000	5,615517E-10	0,431094	-0,036290
713,000000	9,670997E-10	0,431699	-0,037917
714,000000	1,072419E-9	0,432305	-0,039316
715,000000	2,560740E-10	0,432910	-0,040906
716,000000	4,584956E-10	0,433516	-0,042581
717,000000	5,541609E-10	0,434121	-0,043878
718,000000	9,968900E-10	0,434727	-0,045271
719,000000	6,710840E-10	0,435332	-0,045738
720,000000	8,279442E-10	0,435937	-0,046838
721,000000	1,984662E-10	0,436543	-0,047568
722,000000	2,467379E-10	0,437148	-0,049445
723,000000	5,251655E-10	0,437754	-0,049343
724,000000	3,764984E-10	0,438359	-0,051442
725,000000	5,086976E-10	0,438965	-0,051101
726,000000	1,553066E-10	0,439570	-0,051060
727,000000	8,727771E-10	0,440176	-0,051867
728,000000	4,192086E-10	0,440781	-0,052997
729,000000	4,448739E-10	0,441387	-0,053170
730,000000	1,952880E-10	0,441992	-0,052901
731,000000	3,704694E-10	0,442598	-0,052483
732,000000	4,569666E-10	0,443203	-0,052602
733,000000	5,840308E-11	0,443809	-0,053601
734,000000	5,154279E-10	0,444414	-0,052477
735,000000	5,846960E-10	0,445020	-0,053738
736,000000	1,387055E-10	0,445625	-0,053559
737,000000	4,432330E-10	0,446230	-0,052530
738,000000	6,573899E-10	0,446836	-0,052004
739,000000	1,403119E-9	0,447441	-0,051915
740,000000	3,617163E-10	0,448047	-0,050910
741,000000	2,393449E-10	0,448652	-0,049714
742,000000	2,173120E-11	0,449258	-0,048769
743,000000	5,249838E-10	0,449863	-0,047855
744,000000	1,749243E-10	0,450469	-0,047005
745,000000	4,471509E-10	0,451074	-0,045176
746,000000	4,343476E-11	0,451680	-0,043788
747,000000	3,216973E-10	0,452285	-0,043549
748,000000	6,852196E-10	0,452891	-0,040685
749,000000	8,473923E-10	0,453496	-0,039364
750,000000	1,542972E-10	0,454102	-0,037175
751,000000	4,493390E-10	0,454707	-0,036212
752,000000	2,136546E-10	0,455313	-0,033803
753,000000	2,322354E-10	0,455918	-0,031602
754,000000	8,688515E-11	0,456523	-0,029874
755,000000	2,851218E-10	0,457129	-0,027554
756,000000	3,919287E-10	0,457734	-0,025832
757,000000	9,747354E-10	0,458340	-0,023685
758,000000	3,653652E-10	0,458945	-0,021174
759,000000	5,968171E-10	0,459551	-0,019290
760,000000	1,149425E-10	0,460156	-0,016408
761,000000	6,686048E-10	0,460762	-0,014160
762,000000	1,102076E-9	0,461367	-0,013197
763,000000	5,997496E-11	0,461973	-0,008862
764,000000	1,750836E-10	0,462578	-0,008187
765,000000	3,518363E-10	0,463184	-0,005185
766,000000	3,479176E-10	0,463789	-0,002787
767,000000	2,172887E-10	0,464395	-0,000850
768,000000	2,020839E-10	0,465000	0,001602
769,000000	5,697233E-10	0,465605	0,004921
770,000000	2,974559E-10	0,466211	0,006571
771,000000	7,776202E-10	0,466816	0,008873
772,000000	2,633743E-10	0,467422	0,011576
773,000000	4,687886E-10	0,468027	0,012801
774,000000	1,734773E-10	0,468633	0,015989
775,000000	3,442184E-10	0,469238	0,018715
776,000000	1,818972E-10	0,469844	0,020964
777,000000	7,212588E-10	0,470449	0,022255
778,000000	5,966962E-10	0,471055	0,024378
779,000000	5,686695E-10	0,471660	0,026835
780,000000	5,569537E-10	0,472266	0,028270
781,000000	2,064720E-10	0,472871	0,030052
782,000000	1,850064E-10	0,473477	0,032450
783,000000	9,814159E-10	0,474082	0,034686
784,000000	4,145499E-10	0,474687	0,035631
785,000000	6,731262E-10	0,475293	0,037449
786,000000	1,450938E-10	0,475898	0,039608
787,000000	2,765567E-10	0,476504	0,040989
788,000000	4,613868E-10	0,477109	0,042370
789,000000	2,449356E-10	0,477715	0,044511
790,000000	5,844940E-10	0,478320	0,044876
791,000000	1,780656E-10	0,478926	0,046155
792,000000	3,863734E-10	0,479531	0,048750
793,000000	1,361536E-10	0,480137	0,048702
794,000000	5,946616E-10	0,480742	0,050066
795,000000	5,597205E-10	0,481348	0,050682
796,000000	3,637709E-10	0,481953	0,052153
797,000000	2,026862E-10	0,482559	0,053014
798,000000	3,076135E-10	0,483164	0,053785
799,000000	5,400869E-10	0,483770	0,053731
800,000000	8,279242E-10	0,484375	0,054640
801,000000	5,932959E-10	0,484980	0,054772
802,000000	9,781893E-11	0,485586	0,055364
803,000000	8,084067E-10	0,486191	0,055160
804,000000	4,446871E-10	0,486797	0,055776
805,000000	2,506480E-10	0,487402	0,056338
806,000000	4,203791E-10	0,488008	0,055950
807,000000	3,564554E-10	0,488613	0,056033
808,000000	2,969471E-10	0,489219	0,056846
809,000000	9,769826E-10	0,489824	0,056380
810,000000	3,744045E-10	0,490430	0,056075
811,000000	6,016083E-10	0,491035	0,055997
812,000000	1,193545E-10	0,491641	0,054526
813,000000	1,638730E-10	0,492246	0,054730
814,000000	7,914381E-11	0,492852	0,053964
815,000000	5,029101E-10	0,493457	0,053588
816,000000	4,212311E-10	0,494063	0,052194
817,000000	4,591742E-10	0,494668	0,051602
818,000000	6,091151E-11	0,495273	0,051088
819,000000	7,141105E-10	0,495879	0,050622
820,000000	5,503090E-10	0,496484	0,049342
821,000000	1,181793E-9	0,497090	0,046921
822,000000	5,888129E-10	0,497695	0,045599
823,000000	1,144900E-9	0,498301	0,044511
824,000000	2,213619E-10	0,498906	0,043153
825,000000	7,350535E-10	0,499512	0,042011
826,000000	3,956398E-10	0,500117	0,040283
827,000000	4,398187E-11	0,500723	0,037730
828,000000	2,780116E-10	0,501328	0,036157
829,000000	8,063944E-10	0,501934	0,034190
830,000000	3,112729E-10	0,502539	0,032091
831,000000	5,567000E-10	0,503145	0,030399
832,000000	1,564739E-10	0,503750	0,028880
833,000000	8,150247E-10	0,504355	0,026130
834,000000	5,286404E-10	0,504961	0,024671
835,000000	9,879077E-10	0,505566	0,022225
836,000000	4,727634E-10	0,506172	0,019050
837,000000	1,076738E-10	0,506777	0,017669
838,000000	5,087179E-10	0,507383	0,015169
839,000000	3,937663E-10	0,507988	0,013053
840,000000	1,792010E-9	0,508594	0,012090
841,000000	5,555686E-10	0,509199	0,008676
842,000000	1,966051E-10	0,509805	0,006834
843,000000	3,099635E-10	0,510410	0,003958
844,000000	1,037917E-9	0,511016	0,002254
845,000000	5,881920E-10	0,511621	-0,000108
846,000000	3,964859E-10	0,512227	-0,002715
847,000000	2,918103E-10	0,512832	-0,004437
848,000000	8,674370E-11	0,513437	-0,006632
849,000000	3,268649E-10	0,514043	-0,008521
850,000000	3,339310E-10	0,514648	-0,011780
851,000000	5,207298E-10	0,515254	-0,013759
852,000000	5,456950E-10	0,515859	-0,015858
853,000000	1,604338E-10	0,516465	-0,017407
854,000000	5,563115E-10	0,517070	-0,018716
855,000000	7,633601E-10	0,517676	-0,022011
856,000000	2,391981E-10	0,518281	-0,023458
857,000000	3,880129E-10	0,518887	-0,025407
858,000000	4,058187E-10	0,519492	-0,027028
859,000000	7,609086E-10	0,520098	-0,029204
860,000000	5,255830E-10	0,520703	-0,029169
861,000000	3,937054E-10	0,521309	-0,031901
862,000000	5,677234E-10	0,521914	-0,032696
863,000000	6,011426E-10	0,522520	-0,034550
864,000000	2,842376E-10	0,523125	-0,036404
865,000000	1,931649E-10	0,523730	-0,037797
866,000000	7,848908E-10	0,524336	-0,038903
867,000000	2,671478E-10	0,524941	-0,039944
868,000000	2,665510E-11	0,525547	-0,040972
869,000000	2,109027E-10	0,526152	-0,043029
870,000000	1,959385E-10	0,526758	-0,043226
871,000000	3,987820E-10	0,527363	-0,043902
872,000000	1,887167E-10	0,527969	-0,045218
873,000000	6,669975E-10	0,528574	-0,046575
874,000000	1,784896E-10	0,529180	-0,046378
875,000000	5,661804E-10	0,529785	-0,046904
876,000000	6,814248E-10	0,530391	-0,046892
877,000000	8,161898E-10	0,530996	-0,047855
878,000000	5,038785E-10	0,531602	-0,047986
879,000000	5,046405E-10	0,532207	-0,047795
880,000000	2,949692E-10	0,532813	-0,048201
881,000000	7,890343E-10	0,533418	-0,048369
882,000000	6,208876E-10	0,534023	-0,048662
883,000000	3,310461E-10	0,534629	-0,048285
884,000000	6,834964E-10	0,535234	-0,048064
885,000000	8,035780E-10	0,535840	-0,048225
886,000000	9,147748E-10	0,536445	-0,047065
887,000000	6,983800E-10	0,537051	-0,045851
888,000000	1,579060E-10	0,537656	-0,046671
889,000000	3,663286E-10	0,538262	-0,045235
890,000000	1,008100E-9	0,538867	-0,045319
891,000000	2,277001E-10	0,539473	-0,044159
892,000000	2,834061E-10	0,540078	-0,042850
893,000000	4,002226E-10	0,540684	-0,040506
894,000000	9,326339E-11	0,541289	-0,041289
895,000000	6,329166E-10	0,541895	-0,040159
896,000000	1,020676E-9	0,542500	-0,039059
897,000000	7,980673E-10	0,543105	-0,037103
898,000000	4,758390E-10	0,543711	-0,036272
899,000000	1,805838E-10	0,544316	-0,033904
900,000000	4,901597E-10	0,544922	-0,033223
901,000000	1,872039E-10	0,545527	-0,032116
902,000000	4,541583E-10	0,546133	-0,029593
903,000000	2,910184E-10	0,546738	-0,028439
904,000000	3,138935E-10	0,547344	-0,027040
905,000000	2,958302E-10	0,547949	-0,025862
906,000000	1,315919E-9	0,548555	-0,023070
907,000000	1,497919E-10	0,549160	-0,021915
908,000000	4,715788E-10	0,549766	-0,019392
909,000000	8,714785E-10	0,550371	-0,017138
910,000000	2,910195E-10	0,550977	-0,016151
911,000000	5,577445E-10	0,551582	-0,014465
912,000000	1,883902E-10	0,552187	-0,012605
913,000000	2,380352E-10	0,552793	-0,010016
914,000000	6,571082E-10	0,553398	-0,008061
915,000000	5,981483E-10	0,554004	-0,005304
916,000000	2,544583E-10	0,554609	-0,003122
917,000000	1,630409E-10	0,555215	-0,001214
918,000000	9,205767E-11	0,555820	0,000245
919,000000	3,946644E-10	0,556426	0,002032
920,000000	2,534792E-10	0,557031	0,004974
921,000000	5,484572E-10	0,557637	0,006678
922,000000	2,059886E-10	0,558242	0,008640
923,000000	2,044516E-10	0,558848	0,012030
924,000000	7,140434E-10	0,559453	0,013621
925,000000	3,224492E-10	0,560059	0,016198
926,000000	7,327638E-10	0,560664	0,017669
927,000000	3,780915E-10	0,561270	0,019558
928,000000	1,332247E-10	0,561875	0,021944
929,000000	5,183829E-10	0,562480	0,023463
930,000000	8,081911E-10	0,563086	0,025083
931,000000	8,672077E-10	0,563691	0,027924
932,000000	2,286035E-10	0,564297	0,029215
933,000000	2,847649E-10	0,564902	0,030519
934,000000	5,472555E-10	0,565508	0,032797
935,000000	4,914580E-10	0,566113	0,034376
936,000000	2,232724E-10	0,566719	0,036283
937,000000	9,790623E-11	0,567324	0,038250
938,000000	5,888937E-10	0,567930	0,039213
939,000000	3,836511E-10	0,568535	0,040247
940,000000	1,049674E-9	0,569141	0,042257
941,000000	2,685262E-10	0,569746	0,043727
942,000000	6,763911E-11	0,570352	0,045055
943,000000	7,596768E-10	0,570957	0,045617
944,000000	4,422669E-10	0,571562	0,046807
945,000000	1,206943E-10	0,572168	0,047548
946,000000	1,681739E-10	0,572773	0,048027
947,000000	3,474035E-10	0,573379	0,049181
948,000000	6,253885E-10	0,573984	0,050789
949,000000	5,446803E-11	0,574590	0,050831
950,000000	3,430741E-10	0,575195	0,050927
951,000000	5,715170E-10	0,575801	0,051405
952,000000	2,419315E-10	0,576406	0,051632
953,000000	1,568961E-9	0,577012	0,051112
954,000000	4,336109E-10	0,577617	0,052673
955,000000	1,078801E-9	0,578223	0,051806
956,000000	8,469428E-10	0,578828	0,051286
957,000000	4,830924E-10	0,579434	0,052404
958,000000	3,612514E-10	0,580039	0,051872
959,000000	4,814505E-10	0,580645	0,051459
960,000000	6,397201E-10	0,581250	0,050131
961,000000	4,966754E-10	0,581855	0,049581
962,000000	1,726985E-10	0,582461	0,049031
963,000000	2,868960E-10	0,583066	0,049462
964,000000	9,043038E-10	0,583672	0,048433
965,000000	4,855570E-10	0,584277	0,047327
966,000000	7,835140E-10	0,584883	0,046633
967,000000	8,952347E-10	0,585488	0,045318
968,000000	1,120112E-10	0,586094	0,045109
969,000000	9,568796E-10	0,586699	0,042472
970,000000	9,893724E-10	0,587305	0,041126
971,000000	4,029208E-10	0,587910	0,040624
972,000000	2,372772E-10	0,588516	0,038723
973,000000	8,372247E-10	0,589121	0,037868
974,000000	2,455833E-10	0,589727	0,036558
975,000000	5,314254E-10	0,590332	0,034782
976,000000	9,808638E-10	0,590938	0,033742
977,000000	2,592527E-10	0,591543	0,032133
978,000000	3,659676E-10	0,592148	0,030214
979,000000	3,398294E-10	0,592754	0,028892
980,000000	6,178370E-10	0,593359	0,025735
981,000000	4,229513E-10	0,593965	0,024850
982,000000	3,539187E-10	0,594570	0,023798
983,000000	4,066782E-10	0,595176	0,021717
984,000000	5,766276E-10	0,595781	0,019971
985,000000	5,781801E-10	0,596387	0,018548
986,000000	5,469670E-10	0,596992	0,016850
987,000000	8,204357E-10	0,597598	0,014326
988,000000	4,368790E-10	0,598203	0,012682
989,000000	1,153318E-10	0,598809	0,011522
990,000000	1,889516E-10	0,599414	0,009608
991,000000	2,931930E-10	0,600020	0,007294
992,000000	3,860622E-10	0,600625	0,006033
993,000000	5,643138E-10	0,601230	0,004394
994,000000	6,589702E-10	0,601836	0,001853
995,000000	1,466987E-10	0,602441	0,000161
996,000000	5,036691E-10	0,603047	-0,001872
997,000000	4,900152E-10	0,603652	-0,003696
998,000000	2,039592E-10	0,604258	-0,005119
999,000000	5,803062E-10	0,604863	-0,007421
1000,000000	4,554308E-10	0,605469	-0,008336
1001,000000	5,803062E-10	0,606074	-0,011278
1002,000000	2,039592E-10	0,606680	-0,012498
1003,000000	4,900152E-10	0,607285	-0,013670
1004,000000	5,036691E-10	0,607891	-0,016384
1005,000000	1,466987E-10	0,608496	-0,016564
1006,000000	6,589702E-10	0,609102	-0,018687
1007,000000	5,643138E-10	0,609707	-0,021132
1008,000000	3,860622E-10	0,610313	-0,021933
1009,000000	2,931930E-10	0,610918	-0,024026
1010,000000	1,889516E-10	0,611523	-0,024833
1011,000000	1,153318E-10	0,612129	-0,027590
1012,000000	4,368790E-10	0,612734	-0,028911
1013,000000	8,204357E-10	0,613340	-0,029497
1014,000000	5,469670E-10	0,613945	-0,031142
1015,000000	5,781801E-10	0,614551	-0,032015
1016,000000	5,766276E-10	0,615156	-0,032954
1017,000000	4,066782E-10	0,615762	-0,034341
1018,000000	3,539187E-10	0,616367	-0,035597
1019,000000	4,229513E-10	0,616973	-0,035692
1020,000000	6,178370E-10	0,617578	-0,036804
1021,000000	3,398294E-10	0,618184	-0,038018
1022,000000	3,659676E-10	0,618789	-0,038216
1023,000000	2,592527E-10	0,619395	-0,040009
1024,000000	9,808638E-10	0,620000	-0,041092
1025,000000	5,314254E-10	0,620605	-0,040924
1026,000000	2,455833E-10	0,621211	-0,042252
1027,000000	8,372247E-10	0,621816	-0,042090
1028,000000	2,372772E-10	0,622422	-0,042850
1029,000000	4,029208E-10	0,623027	-0,043125
1030,000000	9,893724E-10	0,623633	-0,043639
1031,000000	9,568796E-10	0,624238	-0,043364
1032,000000	1,120112E-10	0,624844	-0,043250
1033,000000	8,952347E-10	0,625449	-0,043131
1034,000000	7,835140E-10	0,626055	-0,042670
1035,000000	4,855570E-10	0,626660	-0,042892
1036,000000	9,043038E-10	0,627266	-0,042252
1037,000000	2,868960E-10	0,627871	-0,041283
1038,000000	1,726985E-10	0,628477	-0,041134
1039,000000	4,966754E-10	0,629082	-0,039573
1040,000000	6,397201E-10	0,629687	-0,039639
1041,000000	4,814505E-10	0,630293	-0,039382
1042,000000	3,612514E-10	0,630898	-0,037528
1043,000000	4,830924E-10	0,631504	-0,037079
1044,000000	8,469428E-10	0,632109	-0,035561
1045,000000	1,078801E-9	0,632715	-0,034933
1046,000000	4,336109E-10	0,633320	-0,033438
1047,000000	1,568961E-9	0,633926	-0,032272
1048,000000	2,419315E-10	0,634531	-0,030699
1049,000000	5,715170E-10	0,635137	-0,028726
1050,000000	3,430741E-10	0,635742	-0,027112
1051,000000	5,446803E-11	0,636348	-0,025485
1052,000000	6,253885E-10	0,636953	-0,023960
1053,000000	3,474035E-10	0,637559	-0,022735
1054,000000	1,681739E-10	0,638164	-0,020576
1055,000000	1,206943E-10	0,638770	-0,019069
1056,000000	4,422669E-10	0,639375	-0,017132
1057,000000	7,596768E-10	0,639980	-0,015583
1058,000000	6,763911E-11	0,640586	-0,014949
1059,000000	2,685262E-10	0,641191	-0,011876
1060,000000	1,049674E-9	0,641797	-0,010901
1061,000000	3,836511E-10	0,642402	-0,009125
1062,000000	5,888937E-10	0,643008	-0,006997
1063,000000	9,790623E-11	0,643613	-0,005538
1064,000000	2,232724E-10	0,644219	-0,004085
1065,000000	4,914580E-10	0,644824	-0,001675
1066,000000	5,472555E-10	0,645430	-0,001352
1067,000000	2,847649E-10	0,646035	0,000472
1068,000000	2,286035E-10	0,646641	0,002893
1069,000000	8,672077E-10	0,647246	0,003677
1070,000000	8,081911E-10	0,647852	0,005572
1071,000000	5,183829E-10	0,648457	0,007677
1072,000000	1,332247E-10	0,649062	0,009555
1073,000000	3,780915E-10	0,649668	0,010081
1074,000000	7,327638E-10	0,650273	0,012353
1075,000000	3,224492E-10	0,650879	0,014045
1076,000000	7,140434E-10	0,651484	0,015708
1077,000000	2,044516E-10	0,652090	0,016305
1078,000000	2,059886E-10	0,652695	0,018452
1079,000000	5,484572E-10	0,653301	0,020162
1080,000000	2,534792E-10	0,653906	0,021639
1081,000000	3,946644E-10	0,654512	0,022512
1082,000000	9,205767E-11	0,655117	0,024719
1083,000000	1,630409E-10	0,655723	0,025956
1084,000000	2,544583E-10	0,656328	0,027511
1085,000000	5,981483E-10	0,656934	0,028623
1086,000000	6,571082E-10	0,657539	0,029604
1087,000000	2,380352E-10	0,658145	0,032067
1088,000000	1,883902E-10	0,658750	0,032934
1089,000000	5,577445E-10	0,659355	0,033042
1090,000000	2,910195E-10	0,659961	0,035494
1091,000000	8,714785E-10	0,660566	0,036684
1092,000000	4,715788E-10	0,661172	0,037126
1093,000000	1,497919E-10	0,661777	0,038214
1094,000000	1,315919E-9	0,662383	0,039859
1095,000000	2,958302E-10	0,662988	0,040223
1096,000000	3,138935E-10	0,663594	0,041001
1097,000000	2,910184E-10	0,664199	0,041647
1098,000000	4,541583E-10	0,664805	0,042125
1099,000000	1,872039E-10	0,665410	0,043082
1100,000000	4,901597E-10	0,666016	0,043530
1101,000000	1,805838E-10	0,666621	0,044140
1102,000000	4,758390E-10	0,667227	0,044373
1103,000000	7,980673E-10	0,667832	0,044947
1104,000000	1,020676E-9	0,668438	0,045282
1105,000000	6,329166E-10	0,669043	0,045737
1106,000000	9,326339E-11	0,669648	0,044870
1107,000000	4,002226E-10	0,670254	0,045133
1108,000000	2,834061E-10	0,670859	0,045940
1109,000000	2,277001E-10	0,671465	0,044702
1110,000000	1,008100E-9	0,672070	0,045354
1111,000000	3,663286E-10	0,672676	0,044744
1112,000000	1,579060E-10	0,673281	0,044505
1113,000000	6,983800E-10	0,673887	0,043476
1114,000000	9,147748E-10	0,674492	0,042561
1115,000000	8,035780E-10	0,675098	0,041647
1116,000000	6,834964E-10	0,675703	0,041898
1117,000000	3,310461E-10	0,676309	0,040708
1118,000000	6,208876E-10	0,676914	0,039907
1119,000000	7,890343E-10	0,677520	0,038190
1120,000000	2,949692E-10	0,678125	0,037288
1121,000000	5,046405E-10	0,678730	0,035195
1122,000000	5,038785E-10	0,679336	0,034704
1123,000000	8,161898E-10	0,679941	0,033568
1124,000000	6,814248E-10	0,680547	0,032438
1125,000000	5,661804E-10	0,681152	0,030764
1126,000000	1,784896E-10	0,681758	0,028276
1127,000000	6,669975E-10	0,682363	0,027995
1128,000000	1,887167E-10	0,682969	0,026524
1129,000000	3,987820E-10	0,683574	0,024013
1130,000000	1,959385E-10	0,684180	0,022931
1131,000000	2,109027E-10	0,684785	0,019887
1132,000000	2,665510E-11	0,685391	0,019235
1133,000000	2,671478E-10	0,685996	0,017609
1134,000000	7,848908E-10	0,686602	0,016030
1135,000000	1,931649E-10	0,687207	0,014308
1136,000000	2,842376E-10	0,687813	0,012509
1137,000000	6,011426E-10	0,688418	0,010774
1138,000000	5,677234E-10	0,689023	0,008759
1139,000000	3,937054E-10	0,689629	0,007731
1140,000000	5,255830E-10	0,690234	0,006637
1141,000000	7,609086E-10	0,690840	0,003790
1142,000000	4,058187E-10	0,691445	0,002134
1143,000000	3,880129E-10	0,692051	0,001584
1144,000000	2,391981E-10	0,692656	-0,000246
1145,000000	7,633601E-10	0,693262	-0,001597
1146,000000	5,563115E-10	0,693867	-0,003200
1147,000000	1,604338E-10	0,694473	-0,004677
1148,000000	5,456950E-10	0,695078	-0,005956
1149,000000	5,207298E-10	0,695684	-0,007935
1150,000000	3,339310E-10	0,696289	-0,009472
1151,000000	3,268649E-10	0,696895	-0,010214
1152,000000	8,674370E-11	0,697500	-0,011463
1153,000000	2,918103E-10	0,698105	-0,012623
1154,000000	3,964859E-10	0,698711	-0,013753
1155,000000	5,881920E-10	0,699316	-0,015416
1156,000000	1,037917E-9	0,699922	-0,016050
1157,000000	3,099635E-10	0,700527	-0,016408
1158,000000	1,966051E-10	0,701133	-0,018154
1159,000000	5,555686E-10	0,701738	-0,017790
1160,000000	1,792010E-9	0,702344	-0,020355
1161,000000	3,937663E-10	0,702949	-0,020965
1162,000000	5,087179E-10	0,703555	-0,021772
1163,000000	1,076738E-10	0,704160	-0,022196
1164,000000	4,727634E-10	0,704766	-0,024702
1165,000000	9,879077E-10	0,705371	-0,025109
1166,000000	5,286404E-10	0,705977	-0,025820
1167,000000	8,150247E-10	0,706582	-0,027339
1168,000000	1,564739E-10	0,707187	-0,026890
1169,000000	5,567000E-10	0,707793	-0,028828
1170,000000	3,112729E-10	0,708398	-0,029773
1171,000000	8,063944E-10	0,709004	-0,031004
1172,000000	2,780116E-10	0,709609	-0,031004
1173,000000	4,398187E-11	0,710215	-0,031794
1174,000000	3,956398E-10	0,710820	-0,032415
1175,000000	7,350535E-10	0,711426	-0,033677
1176,000000	2,213619E-10	0,712031	-0,033241
1177,000000	1,144900E-9	0,712637	-0,034431
1178,000000	5,888129E-10	0,713242	-0,034437
1179,000000	1,181793E-9	0,713848	-0,035202
1180,000000	5,503090E-10	0,714453	-0,035573
1181,000000	7,141105E-10	0,715059	-0,035931
1182,000000	6,091151E-11	0,715664	-0,036248
1183,000000	4,591742E-10	0,716270	-0,036081
1184,000000	4,212311E-10	0,716875	-0,035872
1185,000000	5,029101E-10	0,717480	-0,035429
1186,000000	7,914381E-11	0,718086	-0,036721
1187,000000	1,638730E-10	0,718691	-0,036230
1188,000000	1,193545E-10	0,719297	-0,035058
1189,000000	6,016083E-10	0,719902	-0,034580
1190,000000	3,744045E-10	0,720508	-0,034341
1191,000000	9,769826E-10	0,721113	-0,033390
1192,000000	2,969471E-10	0,721719	-0,033354
1193,000000	3,564554E-10	0,722324	-0,032230
1194,000000	4,203791E-10	0,722930	-0,031812
1195,000000	2,506480E-10	0,723535	-0,030657
1196,000000	4,446871E-10	0,724141	-0,028888
1197,000000	8,084067E-10	0,724746	-0,027429
1198,000000	9,781893E-11	0,725352	-0,026956
1199,000000	5,932959E-10	0,725957	-0,025623
1200,000000	8,279242E-10	0,726562	-0,024493
1201,000000	5,400869E-10	0,727168	-0,023040
1202,000000	3,076135E-10	0,727773	-0,020767
1203,000000	2,026862E-10	0,728379	-0,019942
1204,000000	3,637709E-10	0,728984	-0,017837
1205,000000	5,597205E-10	0,729590	-0,015918
1206,000000	5,946616E-10	0,730195	-0,015123
1207,000000	1,361536E-10	0,730801	-0,013233
1208,000000	3,863734E-10	0,731406	-0,011427
1209,000000	1,780656E-10	0,732012	-0,009472
1210,000000	5,844940E-10	0,732617	-0,008348
1211,000000	2,449356E-10	0,733223	-0,007009
1212,000000	4,613868E-10	0,733828	-0,004449
1213,000000	2,765567E-10	0,734434	-0,003439
1214,000000	1,450938E-10	0,735039	-0,000898
1215,000000	6,731262E-10	0,735645	-0,000551
1216,000000	4,145499E-10	0,736250	0,000998
1217,000000	9,814159E-10	0,736855	0,003312
1218,000000	1,850064E-10	0,737461	0,005100
1219,000000	2,064720E-10	0,738066	0,007007
1220,000000	5,569537E-10	0,738672	0,008508
1221,000000	5,686695E-10	0,739277	0,009339
1222,000000	5,966962E-10	0,739883	0,010960
1223,000000	7,212588E-10	0,740488	0,012311
1224,000000	1,818972E-10	0,741094	0,013836
1225,000000	3,442184E-10	0,741699	0,015373
1226,000000	1,734773E-10	0,742305	0,016419
1227,000000	4,687886E-10	0,742910	0,017627
1228,000000	2,633743E-10	0,743516	0,018530
1229,000000	7,776202E-10	0,744121	0,019971
1230,000000	2,974559E-10	0,744727	0,021316
1231,000000	5,697233E-10	0,745332	0,022811
1232,000000	2,020839E-10	0,745938	0,023056
1233,000000	2,172887E-10	0,746543	0,023194
1234,000000	3,479176E-10	0,747148	0,024958
1235,000000	3,518363E-10	0,747754	0,025813
1236,000000	1,750836E-10	0,748359	0,026722
1237,000000	5,997496E-11	0,748965	0,027009
1238,000000	1,102076E-9	0,749570	0,028677
1239,000000	6,686048E-10	0,750176	0,029371
1240,000000	1,149425E-10	0,750781	0,029550
1241,000000	5,968171E-10	0,751387	0,030166
1242,000000	3,653652E-10	0,751992	0,031314
1243,000000	9,747354E-10	0,752598	0,031679
1244,000000	3,919287E-10	0,753203	0,031924
1245,000000	2,851218E-10	0,753809	0,032079
1246,000000	8,688515E-11	0,754414	0,033467
1247,000000	2,322354E-10	0,755020	0,032647
1248,000000	2,136546E-10	0,755625	0,033682
1249,000000	4,493390E-10	0,756230	0,033748
1250,000000	1,542972E-10	0,756836	0,035494
1251,000000	8,473923E-10	0,757441	0,035374
1252,000000	6,852196E-10	0,758047	0,035751
1253,000000	3,216973E-10	0,758652	0,036014
1254,000000	4,343476E-11	0,759258	0,035996
1255,000000	4,471509E-10	0,759863	0,036791
1256,000000	1,749243E-10	0,760469	0,036761
1257,000000	5,249838E-10	0,761074	0,037030
1258,000000	2,173120E-11	0,761680	0,036737
1259,000000	2,393449E-10	0,762285	0,036809
1260,000000	3,617163E-10	0,762891	0,036654
1261,000000	1,403119E-9	0,763496	0,036702
1262,000000	6,573899E-10	0,764102	0,036486
1263,000000	4,432330E-10	0,764707	0,035984
1264,000000	1,387055E-10	0,765312	0,036456
1265,000000	5,846960E-10	0,765918	0,036881
1266,000000	5,154279E-10	0,766523	0,035661
1267,000000	5,840308E-11	0,767129	0,035655
1268,000000	4,569666E-10	0,767734	0,034896
1269,000000	3,704694E-10	0,768340	0,034238
1270,000000	1,952880E-10	0,768945	0,033251
1271,000000	4,448739E-10	0,769551	0,032731
1272,000000	4,192086E-10	0,770156	0,031129
1273,000000	8,727771E-10	0,770762	0,030076
1274,000000	1,553066E-10	0,771367	0,029120
1275,000000	5,086976E-10	0,771973	0,027726
1276,000000	3,764984E-10	0,772578	0,026692
1277,000000	5,251655E-10	0,773184	0,024856
1278,000000	2,467379E-10	0,773789	0,023313
1279,000000	1,984662E-10	0,774395	0,022805
1280,000000	8,279442E-10	0,775000	0,021310
1281,000000	6,710840E-10	0,775605	0,018805
1282,000000	9,968900E-10	0,776211	0,017609
1283,000000	5,541609E-10	0,776816	0,015767
1284,000000	4,584956E-10	0,777422	0,014117
1285,000000	2,560740E-10	0,778027	0,013136
1286,000000	1,072419E-9	0,778633	0,011133
1287,000000	9,670997E-10	0,779238	0,010015
1288,000000	5,615517E-10	0,779844	0,007868
1289,000000	7,240231E-10	0,780449	0,005620
1290,000000	7,426081E-10	0,781055	0,004580
1291,000000	6,373902E-10	0,781660	0,003485
1292,000000	2,511165E-10	0,782266	0,001476
1293,000000	7,808796E-10	0,782871	0,000107
1294,000000	9,690719E-10	0,783477	-0,002052
1295,000000	4,507076E-10	0,784082	-0,003062
1296,000000	8,466468E-10	0,784687	-0,004126
1297,000000	4,039918E-10	0,785293	-0,005400
1298,000000	3,862232E-9	0,785898	-0,006895
1299,000000	8,481600E-10	0,786504	-0,007947
1300,000000	5,575241E-10	0,787109	-0,009245
1301,000000	3,688054E-10	0,787715	-0,011643
1302,000000	6,268776E-10	0,788320	-0,011828
1303,000000	4,440323E-10	0,788926	-0,013179
1304,000000	9,241520E-10	0,789531	-0,013694
1305,000000	6,442281E-11	0,790137	-0,015206
1306,000000	4,356533E-10	0,790742	-0,015464
1307,000000	6,283696E-10	0,791348	-0,016725
1308,000000	2,766011E-10	0,791953	-0,017497
1309,000000	3,651074E-10	0,792559	-0,017831
1310,000000	5,025959E-10	0,793164	-0,018770
1311,000000	8,678617E-10	0,793770	-0,019781
1312,000000	1,084867E-9	0,794375	-0,020445
1313,000000	7,484769E-10	0,794980	-0,020277
1314,000000	4,840729E-10	0,795586	-0,021413
1315,000000	3,386816E-10	0,796191	-0,021694
1316,000000	1,926965E-10	0,796797	-0,021856
1317,000000	2,659625E-10	0,797402	-0,022651
1318,000000	6,733358E-10	0,798008	-0,022896
1319,000000	4,725998E-10	0,798613	-0,022232
1320,000000	6,019395E-10	0,799219	-0,022579
1321,000000	2,802248E-10	0,799824	-0,023159
1322,000000	8,130370E-10	0,800430	-0,023984
1323,000000	3,868300E-10	0,801035	-0,023213
1324,000000	8,996360E-10	0,801641	-0,023398
1325,000000	6,578653E-10	0,802246	-0,023913
1326,000000	5,219033E-11	0,802852	-0,024104
1327,000000	8,644253E-10	0,803457	-0,024158
1328,000000	5,646273E-10	0,804063	-0,024200
1329,000000	1,317984E-10	0,804668	-0,023183
1330,000000	7,952993E-10	0,805273	-0,023428
1331,000000	8,778550E-10	0,805879	-0,024487
1332,000000	4,591899E-10	0,806484	-0,023913
1333,000000	5,362153E-10	0,807090	-0,023763
1334,000000	2,069360E-10	0,807695	-0,023620
1335,000000	1,614960E-10	0,808301	-0,024295
1336,000000	1,135890E-10	0,808906	-0,024301
1337,000000	4,677050E-10	0,809512	-0,023757
1338,000000	4,072214E-10	0,810117	-0,023757
1339,000000	4,154781E-10	0,810723	-0,023877
1340,000000	5,451474E-10	0,811328	-0,024546
1341,000000	1,752419E-10	0,811934	-0,023392
1342,000000	6,716494E-10	0,812539	-0,023931
1343,000000	7,654984E-10	0,813145	-0,023034
1344,000000	2,888331E-10	0,813750	-0,022394
1345,000000	1,643285E-10	0,814355	-0,022202
1346,000000	2,963289E-10	0,814961	-0,022352
1347,000000	1,025302E-9	0,815566	-0,020588
1348,000000	1,984237E-10	0,816172	-0,019966
1349,000000	6,950029E-10	0,816777	-0,019344
1350,000000	5,339503E-10	0,817383	-0,018465
1351,000000	2,613954E-10	0,817988	-0,018041
1352,000000	2,691435E-10	0,818594	-0,016474
1353,000000	8,712277E-10	0,819199	-0,015488
1354,000000	7,290992E-10	0,819805	-0,014848
1355,000000	7,323609E-10	0,820410	-0,013407
1356,000000	6,410726E-10	0,821016	-0,011798
1357,000000	5,350806E-10	0,821621	-0,011445
1358,000000	2,220583E-10	0,822227	-0,010387
1359,000000	7,680858E-10	0,822832	-0,007971
1360,000000	3,147718E-10	0,823438	-0,007475
1361,000000	3,018055E-10	0,824043	-0,004898
1362,000000	4,484896E-10	0,824648	-0,003493
1363,000000	4,220424E-10	0,825254	-0,002691
1364,000000	9,452810E-10	0,825859	-0,000892
1365,000000	7,643282E-10	0,826465	0,000807
1366,000000	2,957823E-10	0,827070	0,001805
1367,000000	2,945711E-10	0,827676	0,002744
1368,000000	3,139097E-10	0,828281	0,005130
1369,000000	3,981542E-10	0,828887	0,006762
1370,000000	8,413945E-10	0,829492	0,007378
1371,000000	2,854584E-10	0,830098	0,008508
1372,000000	1,635887E-10	0,830703	0,010368
1373,000000	4,443210E-10	0,831309	0,011600
1374,000000	1,332214E-9	0,831914	0,012221
1375,000000	2,074573E-10	0,832520	0,013471
1376,000000	5,973450E-10	0,833125	0,014882
1377,000000	4,120591E-10	0,833730	0,015444
1378,000000	7,710491E-10	0,834336	0,017113
1379,000000	3,627772E-10	0,834941	0,017615
1380,000000	5,931850E-10	0,835547	0,018488
1381,000000	1,860897E-10	0,836152	0,019672
1382,000000	4,711271E-10	0,836758	0,020539
1383,000000	1,337547E-9	0,837363	0,021394
1384,000000	3,137061E-10	0,837969	0,022686
1385,000000	1,592153E-9	0,838574	0,022859
1386,000000	1,890324E-10	0,839180	0,023266
1387,000000	1,191768E-9	0,839785	0,023917
1388,000000	1,971002E-10	0,840391	0,025065
1389,000000	3,763783E-10	0,840996	0,025562
1390,000000	2,314059E-9	0,841602	0,025669
1391,000000	1,797629E-9	0,842207	0,025341
1392,000000	1,299645E-9	0,842812	0,027098
1393,000000	1,904875E-10	0,843418	0,027505
1394,000000	3,852611E-10	0,844023	0,026674
1395,000000	8,747943E-10	0,844629	0,027206
1396,000000	1,131992E-9	0,845234	0,026871
1397,000000	3,417163E-10	0,845840	0,027326
1398,000000	1,959150E-10	0,846445	0,027888
1399,000000	3,950134E-10	0,847051	0,027595
1400,000000	1,337227E-9	0,847656	0,025861
1401,000000	5,024354E-10	0,848262	0,026907
1402,000000	4,287146E-10	0,848867	0,026465
1403,000000	6,805447E-10	0,849473	0,026357
1404,000000	5,977044E-10	0,850078	0,026507
1405,000000	8,145578E-10	0,850684	0,025837
1406,000000	1,394989E-9	0,851289	0,024372
1407,000000	8,574846E-10	0,851895	0,025299
1408,000000	7,428106E-10	0,852500	0,025257
1409,000000	2,509256E-10	0,853105	0,024151
1410,000000	1,200602E-9	0,853711	0,024067
1411,000000	4,432914E-10	0,854316	0,024414
1412,000000	2,927514E-10	0,854922	0,024186
1413,000000	2,523001E-10	0,855527	0,023451
1414,000000	6,545837E-10	0,856133	0,022817
1415,000000	1,398823E-10	0,856738	0,022907
1416,000000	7,284742E-10	0,857344	0,021771
1417,000000	1,619696E-10	0,857949	0,022333
1418,000000	5,390696E-10	0,858555	0,021125
1419,000000	7,237186E-10	0,859160	0,021860
1420,000000	9,783766E-10	0,859766	0,020545
1421,000000	5,900147E-10	0,860371	0,021107
1422,000000	4,803426E-10	0,860977	0,019337
1423,000000	4,092280E-10	0,861582	0,019194
1424,000000	1,360512E-10	0,862187	0,018990
1425,000000	5,876017E-10	0,862793	0,019026
1426,000000	2,896888E-10	0,863398	0,017735
1427,000000	1,882955E-10	0,864004	0,017208
1428,000000	3,958887E-10	0,864609	0,016766
1429,000000	8,527789E-10	0,865215	0,015606
1430,000000	3,516870E-10	0,865820	0,015193
1431,000000	1,114921E-9	0,866426	0,013686
1432,000000	6,238653E-10	0,867031	0,013310
1433,000000	1,229905E-10	0,867637	0,012592
1434,000000	1,527942E-9	0,868242	0,011032
1435,000000	1,129550E-9	0,868848	0,009650
1436,000000	6,606761E-10	0,869453	0,009381
1437,000000	7,390093E-10	0,870059	0,007701
1438,000000	7,748672E-10	0,870664	0,006619
1439,000000	2,799851E-10	0,871270	0,006589
1440,000000	2,657691E-10	0,871875	0,004980
1441,000000	8,803568E-10	0,872480	0,003420
1442,000000	7,705410E-10	0,873086	0,002343
1443,000000	6,262279E-10	0,873691	0,002134
1444,000000	1,307933E-10	0,874297	0,000890
1445,000000	7,105841E-10	0,874902	-0,001860
1446,000000	5,193254E-10	0,875508	-0,001902
1447,000000	5,129063E-10	0,876113	-0,002147
1448,000000	9,580169E-10	0,876719	-0,003481
1449,000000	1,458572E-9	0,877324	-0,004497
1450,000000	9,735857E-10	0,877930	-0,005245
1451,000000	3,776778E-10	0,878535	-0,006554
1452,000000	7,927320E-10	0,879141	-0,007373
1453,000000	6,038583E-10	0,879746	-0,007636
1454,000000	2,839041E-10	0,880352	-0,008354
1455,000000	3,496016E-10	0,880957	-0,009490
1456,000000	1,048339E-9	0,881563	-0,009855
1457,000000	8,298805E-10	0,882168	-0,010985
1458,000000	3,245538E-10	0,882773	-0,011248
1459,000000	3,310714E-10	0,883379	-0,012354
1460,000000	6,551282E-10	0,883984	-0,013383
1461,000000	6,612011E-10	0,884590	-0,013628
1462,000000	7,582483E-10	0,885195	-0,014806
1463,000000	5,001953E-10	0,885801	-0,014441
1464,000000	7,970911E-10	0,886406	-0,014483
1465,000000	8,889603E-10	0,887012	-0,015745
1466,000000	8,342252E-10	0,887617	-0,015912
1467,000000	8,267850E-10	0,888223	-0,016935
1468,000000	5,955851E-10	0,888828	-0,017048
1469,000000	2,040177E-9	0,889434	-0,018047
1470,000000	9,475133E-10	0,890039	-0,017628
1471,000000	8,276290E-10	0,890645	-0,018423
1472,000000	6,040730E-10	0,891250	-0,018328
1473,000000	1,444901E-9	0,891855	-0,018435
1474,000000	9,661119E-10	0,892461	-0,019171
1475,000000	1,832778E-9	0,893066	-0,018214
1476,000000	2,027235E-9	0,893672	-0,017867
1477,000000	1,451139E-9	0,894277	-0,018818
1478,000000	8,687706E-10	0,894883	-0,018274
1479,000000	6,955567E-10	0,895488	-0,017718
1480,000000	6,019072E-10	0,896094	-0,018065
1481,000000	4,716184E-10	0,896699	-0,017963
1482,000000	8,047874E-10	0,897305	-0,016731
1483,000000	5,257766E-10	0,897910	-0,017437
1484,000000	5,949490E-10	0,898516	-0,017461
1485,000000	6,111934E-10	0,899121	-0,016941
1486,000000	7,447190E-10	0,899727	-0,016283
1487,000000	4,416235E-10	0,900332	-0,015733
1488,000000	1,222158E-9	0,900937	-0,015511
1489,000000	9,085826E-10	0,901543	-0,014441
1490,000000	3,287387E-10	0,902148	-0,014710
1491,000000	1,156339E-9	0,902754	-0,014178
1492,000000	1,278154E-9	0,903359	-0,014011
1493,000000	6,760252E-10	0,903965	-0,011954
1494,000000	9,279217E-10	0,904570	-0,012575
1495,000000	1,366457E-9	0,905176	-0,011780
1496,000000	7,894819E-10	0,905781	-0,010889
1497,000000	7,235258E-10	0,906387	-0,010835
1498,000000	4,560745E-10	0,906992	-0,009592
1499,000000	8,009974E-10	0,907598	-0,009628
1500,000000	8,400125E-10	0,908203	-0,008103
1501,000000	1,053642E-9	0,908809	-0,008031
1502,000000	1,209932E-9	0,909414	-0,008264
1503,000000	2,582312E-10	0,910020	-0,007529
1504,000000	4,621508E-10	0,910625	-0,007032
1505,000000	5,528816E-10	0,911230	-0,005269
1506,000000	6,234881E-10	0,911836	-0,005119
1507,000000	4,255677E-10	0,912441	-0,005412
1508,000000	1,824930E-9	0,913047	-0,003905
1509,000000	7,455024E-10	0,913652	-0,002638
1510,000000	1,030807E-9	0,914258	-0,002721
1511,000000	1,275475E-9	0,914863	-0,001836
1512,000000	4,382176E-10	0,915469	-0,001322
1513,000000	7,454698E-10	0,916074	-0,000634
1514,000000	5,604849E-10	0,916680	0,000149
1515,000000	5,852091E-10	0,917285	0,000693
1516,000000	1,467954E-9	0,917891	0,001889
1517,000000	8,099987E-10	0,918496	0,002600
1518,000000	1,414400E-9	0,919102	0,003456
1519,000000	1,140292E-9	0,919707	0,004245
1520,000000	4,571288E-10	0,920312	0,006134
1521,000000	1,266001E-9	0,920918	0,007181
1522,000000	9,754145E-10	0,921523	0,007862
1523,000000	1,436620E-9	0,922129	0,009674
1524,000000	9,408962E-10	0,922734	0,008735
1525,000000	4,696325E-10	0,923340	0,009872
1526,000000	6,419379E-10	0,923945	0,011731
1527,000000	6,624290E-10	0,924551	0,011456
1528,000000	4,219754E-10	0,925156	0,011725
1529,000000	9,555716E-10	0,925762	0,012784
1530,000000	1,361196E-9	0,926367	0,013274
1531,000000	1,114429E-9	0,926973	0,015199
1532,000000	4,474203E-10	0,927578	0,015247
1533,000000	9,894884E-10	0,928184	0,016114
1534,000000	1,333851E-9	0,928789	0,016969
1535,000000	1,147065E-9	0,929395	0,017448
1536,000000	1,522056E-9	0,930000	0,017926
1537,000000	1,379673E-9	0,930605	0,018356
1538,000000	3,873077E-10	0,931211	0,018620
1539,000000	9,834120E-10	0,931816	0,019977
1540,000000	6,189441E-10	0,932422	0,019038
1541,000000	9,713453E-10	0,933027	0,019714
1542,000000	1,518373E-9	0,933633	0,020856
1543,000000	7,747123E-10	0,934238	0,020916
1544,000000	1,322423E-9	0,934844	0,020969
1545,000000	2,354166E-10	0,935449	0,021233
1546,000000	1,552959E-9	0,936055	0,021992
1547,000000	8,461379E-10	0,936660	0,021807
1548,000000	4,211027E-10	0,937266	0,020790
1549,000000	3,681852E-10	0,937871	0,022327
1550,000000	9,701686E-10	0,938477	0,022512
1551,000000	7,385284E-10	0,939082	0,022847
1552,000000	8,557262E-10	0,939688	0,023086
1553,000000	9,838468E-10	0,940293	0,022841
1554,000000	5,270572E-10	0,940898	0,022985
1555,000000	8,256562E-10	0,941504	0,022710
1556,000000	1,078133E-9	0,942109	0,022548
1557,000000	1,722249E-9	0,942715	0,021777
1558,000000	1,215402E-9	0,943320	0,022088
1559,000000	7,172629E-10	0,943926	0,021131
1560,000000	1,010715E-9	0,944531	0,020898
1561,000000	1,264761E-9	0,945137	0,020533
1562,000000	7,851781E-10	0,945742	0,019343
1563,000000	8,096535E-10	0,946348	0,019008
1564,000000	1,603414E-9	0,946953	0,019164
1565,000000	6,878509E-10	0,947559	0,017878
1566,000000	6,576288E-10	0,948164	0,017029
1567,000000	2,320876E-9	0,948770	0,016407
1568,000000	7,301396E-10	0,949375	0,016808
1569,000000	1,381850E-9	0,949980	0,015923
1570,000000	9,980024E-10	0,950586	0,015534
1571,000000	1,185025E-9	0,951191	0,014691
1572,000000	6,646889E-10	0,951797	0,013286
1573,000000	7,781851E-10	0,952402	0,013047
1574,000000	5,365018E-10	0,953008	0,012072
1575,000000	3,412695E-10	0,953613	0,012323
1576,000000	4,725201E-10	0,954219	0,011319
1577,000000	9,945274E-10	0,954824	0,010655
1578,000000	4,884083E-10	0,955430	0,009525
1579,000000	1,172870E-9	0,956035	0,009686
1580,000000	5,837893E-10	0,956641	0,008700
1581,000000	8,040855E-10	0,957246	0,007839
1582,000000	9,583037E-10	0,957852	0,007133
1583,000000	8,803106E-10	0,958457	0,005530
1584,000000	1,149537E-9	0,959063	0,006164
1585,000000	1,190790E-9	0,959668	0,005255
1586,000000	9,151964E-10	0,960273	0,005507
1587,000000	6,359418E-10	0,960879	0,004406
1588,000000	1,332419E-9	0,961484	0,004030
1589,000000	8,977556E-10	0,962090	0,003450
1590,000000	1,224344E-9	0,962695	0,002684
1591,000000	6,743998E-10	0,963301	0,001692
1592,000000	2,037984E-10	0,963906	0,001237
1593,000000	2,257188E-9	0,964512	0,000113
1594,000000	1,247122E-9	0,965117	-0,000581
1595,000000	7,344892E-10	0,965723	-0,000521
1596,000000	1,119383E-9	0,966328	-0,001436
1597,000000	9,561088E-10	0,966934	-0,002345
1598,000000	1,057441E-9	0,967539	-0,003331
1599,000000	8,362369E-10	0,968145	-0,003953
1600,000000	1,887573E-9	0,968750	-0,005591
1601,000000	4,274558E-10	0,969355	-0,004617
1602,000000	1,249774E-9	0,969961	-0,005550
1603,000000	1,128243E-9	0,970566	-0,006417
1604,000000	1,031232E-9	0,971172	-0,006524
1605,000000	6,849045E-10	0,971777	-0,007876
1606,000000	1,340421E-9	0,972383	-0,007218
1607,000000	1,943411E-9	0,972988	-0,010022
1608,000000	1,088981E-9	0,973594	-0,009305
1609,000000	6,884402E-10	0,974199	-0,008761
1610,000000	1,464794E-9	0,974805	-0,010393
1611,000000	9,384542E-10	0,975410	-0,010662
1612,000000	2,036044E-9	0,976016	-0,010943
1613,000000	1,485365E-9	0,976621	-0,011876
1614,000000	1,205923E-9	0,977227	-0,012031
1615,000000	1,147990E-9	0,977832	-0,011421
1616,000000	6,660566E-10	0,978437	-0,013377
1617,000000	1,205685E-9	0,979043	-0,014160
1618,000000	1,826325E-9	0,979648	-0,012432
1619,000000	1,093518E-9	0,980254	-0,013580
1620,000000	1,062009E-9	0,980859	-0,013197
1621,000000	4,460066E-10	0,981465	-0,013431
1622,000000	9,169250E-10	0,982070	-0,013873
1623,000000	1,421852E-9	0,982676	-0,013903
1624,000000	8,529609E-10	0,983281	-0,014794
1625,000000	1,066245E-9	0,983887	-0,014274
1626,000000	8,532521E-10	0,984492	-0,013831
1627,000000	1,891315E-9	0,985098	-0,014465
1628,000000	8,856590E-10	0,985703	-0,014094
1629,000000	2,198960E-9	0,986309	-0,013586
1630,000000	1,785133E-9	0,986914	-0,013622
1631,000000	2,254487E-9	0,987520	-0,012384
1632,000000	1,442338E-9	0,988125	-0,012701
1633,000000	7,803092E-10	0,988730	-0,013329
1634,000000	1,534595E-9	0,989336	-0,011936
1635,000000	2,534970E-9	0,989941	-0,012994
1636,000000	1,175242E-9	0,990547	-0,011553
1637,000000	1,869323E-9	0,991152	-0,010267
1638,000000	9,904186E-10	0,991758	-0,009442
1639,000000	2,131945E-10	0,992363	-0,010100
1640,000000	2,036150E-9	0,992969	-0,009628
1641,000000	8,782764E-10	0,993574	-0,008743
1642,000000	3,793175E-10	0,994180	-0,007738
1643,000000	1,258605E-9	0,994785	-0,007840
1644,000000	1,770161E-9	0,995391	-0,005693
1645,000000	7,969109E-10	0,995996	-0,005723
1646,000000	1,489530E-9	0,996602	-0,005143
1647,000000	7,009154E-10	0,997207	-0,004390
1648,000000	1,708697E-9	0,997812	-0,004073
1649,000000	1,048831E-9	0,998418	-0,003164
1650,000000	1,390805E-9	0,999023	-0,002925
1651,000000	1,578822E-9	0,999629	-0,001298
1652,000000	1,321979E-9	1,000234	-0,001274
1653,000000	9,651598E-10	1,000840	-0,000521
1654,000000	1,071165E-9	1,001445	-0,000114
1655,000000	1,588051E-9	1,002051	0,001476
1656,000000	1,932374E-9	1,002656	0,001231
1657,000000	1,494708E-9	1,003262	0,002032
1658,000000	1,806641E-9	1,003867	0,002947
1659,000000	1,355574E-9	1,004473	0,003037
1660,000000	1,684831E-9	1,005078	0,002648
1661,000000	1,634214E-9	1,005684	0,004233
1662,000000	1,294095E-9	1,006289	0,004042
1663,000000	5,811983E-10	1,006895	0,005782
1664,000000	1,259687E-9	1,007500	0,005387
1665,000000	1,625345E-9	1,008105	0,005530
1666,000000	2,261314E-9	1,008711	0,006595
1667,000000	1,850581E-9	1,009316	0,006870
1668,000000	1,587358E-9	1,009922	0,008179
1669,000000	1,155443E-9	1,010527	0,007671
1670,000000	7,946924E-10	1,011133	0,007874
1671,000000	2,186578E-9	1,011738	0,008634
1672,000000	1,074391E-9	1,012344	0,009381
1673,000000	2,610595E-9	1,012949	0,009519
1674,000000	2,042484E-9	1,013555	0,010410
1675,000000	9,548607E-10	1,014160	0,011743
1676,000000	1,898110E-9	1,014766	0,011624
1677,000000	1,809737E-9	1,015371	0,012084
1678,000000	2,190603E-9	1,015977	0,013573
1679,000000	2,075300E-9	1,016582	0,013447
1680,000000	1,644275E-9	1,017187	0,014105
1681,000000	1,295189E-9	1,017793	0,013746
1682,000000	1,567862E-9	1,018398	0,014637
1683,000000	1,727551E-9	1,019004	0,014601
1684,000000	1,494422E-9	1,019609	0,016258
1685,000000	2,005385E-9	1,020215	0,016072
1686,000000	2,033396E-9	1,020820	0,016766
1687,000000	2,413816E-9	1,021426	0,017747
1688,000000	1,901873E-9	1,022031	0,017220
1689,000000	2,540952E-9	1,022637	0,017759
1690,000000	1,651824E-9	1,023242	0,017776
1691,000000	1,342910E-9	1,023848	0,018649
1692,000000	1,453055E-9	1,024453	0,018434
1693,000000	1,257072E-9	1,025059	0,019289
1694,000000	1,347838E-9	1,025664	0,019116
1695,000000	1,287581E-9	1,026270	0,019241
1696,000000	1,452830E-9	1,026875	0,019349
1697,000000	1,365561E-9	1,027480	0,019953
1698,000000	1,334205E-9	1,028086	0,019433
1699,000000	1,505243E-9	1,028691	0,019002
1700,000000	2,459366E-9	1,029297	0,019588
1701,000000	1,555349E-9	1,029902	0,019917
1702,000000	1,524547E-9	1,030508	0,018518
1703,000000	2,008646E-9	1,031113	0,018871
1704,000000	1,252157E-9	1,031719	0,019223
1705,000000	1,769296E-9	1,032324	0,018578
1706,000000	2,121030E-9	1,032930	0,017950
1707,000000	1,181980E-9	1,033535	0,016951
1708,000000	2,027512E-9	1,034141	0,016957
1709,000000	1,177895E-9	1,034746	0,016276
1710,000000	2,391518E-9	1,035352	0,015008
1711,000000	1,052146E-9	1,035957	0,014787
1712,000000	1,390535E-9	1,036563	0,014219
1713,000000	1,489525E-9	1,037168	0,014512
1714,000000	1,908065E-9	1,037773	0,012867
1715,000000	2,102294E-9	1,038379	0,013005
1716,000000	2,272368E-9	1,038984	0,011570
1717,000000	1,954078E-9	1,039590	0,011456
1718,000000	1,036733E-9	1,040195	0,010380
1719,000000	1,405772E-9	1,040801	0,009423
1720,000000	2,619644E-9	1,041406	0,008939
1721,000000	1,058689E-9	1,042012	0,007683
1722,000000	1,723733E-9	1,042617	0,007426
1723,000000	3,061861E-9	1,043223	0,007318
1724,000000	1,213683E-9	1,043828	0,006649
1725,000000	2,373357E-9	1,044434	0,005046
1726,000000	1,918487E-9	1,045039	0,004849
1727,000000	2,703744E-9	1,045645	0,003426
1728,000000	2,031596E-9	1,046250	0,002296
1729,000000	1,675455E-9	1,046855	0,002493
1730,000000	2,334963E-9	1,047461	0,000741
1731,000000	1,412356E-9	1,048066	0,000579
1732,000000	3,305205E-9	1,048672	-0,000760
1733,000000	1,575958E-9	1,049277	-0,000622
1734,000000	2,222917E-9	1,049883	-0,001699
1735,000000	1,829517E-9	1,050488	-0,001956
1736,000000	1,707346E-9	1,051094	-0,002841
1737,000000	2,158766E-9	1,051699	-0,002895
1738,000000	2,581632E-9	1,052305	-0,004904
1739,000000	2,567560E-9	1,052910	-0,004760
1740,000000	2,276177E-9	1,053516	-0,005125
1741,000000	3,269311E-9	1,054121	-0,006201
1742,000000	1,652757E-9	1,054727	-0,006429
1743,000000	2,291731E-9	1,055332	-0,007032
1744,000000	2,450379E-9	1,055937	-0,007888
1745,000000	3,085155E-9	1,056543	-0,007636
1746,000000	2,154402E-9	1,057148	-0,007475
1747,000000	1,973634E-9	1,057754	-0,008318
1748,000000	2,758476E-9	1,058359	-0,008784
1749,000000	1,282225E-9	1,058965	-0,008623
1750,000000	2,450862E-9	1,059570	-0,009837
1751,000000	2,617011E-9	1,060176	-0,009640
1752,000000	3,758655E-9	1,060781	-0,009305
1753,000000	1,658314E-9	1,061387	-0,009245
1754,000000	2,451990E-9	1,061992	-0,010106
1755,000000	1,608359E-9	1,062598	-0,010973
1756,000000	3,000374E-9	1,063203	-0,010315
1757,000000	2,060384E-9	1,063809	-0,010429
1758,000000	1,944550E-9	1,064414	-0,010495
1759,000000	2,178010E-9	1,065020	-0,010806
1760,000000	2,044432E-9	1,065625	-0,010800
1761,000000	3,183512E-9	1,066230	-0,011296
1762,000000	1,826036E-9	1,066836	-0,011128
1763,000000	2,591543E-9	1,067441	-0,010596
1764,000000	1,917983E-9	1,068047	-0,011607
1765,000000	3,088283E-9	1,068652	-0,012151
1766,000000	3,221181E-9	1,069258	-0,010393
1767,000000	2,948259E-9	1,069863	-0,011266
1768,000000	2,371998E-9	1,070469	-0,011882
1769,000000	1,991988E-9	1,071074	-0,011272
1770,000000	1,785794E-9	1,071680	-0,012342
1771,000000	3,509681E-9	1,072285	-0,011194
1772,000000	2,138270E-9	1,072891	-0,011691
1773,000000	2,356313E-9	1,073496	-0,011858
1774,000000	2,077314E-9	1,074102	-0,011380
1775,000000	3,501430E-9	1,074707	-0,010800
1776,000000	2,236660E-9	1,075312	-0,010907
1777,000000	2,722292E-9	1,075918	-0,011063
1778,000000	2,717415E-9	1,076523	-0,009741
1779,000000	2,884548E-9	1,077129	-0,010758
1780,000000	3,439320E-9	1,077734	-0,009562
1781,000000	4,300746E-9	1,078340	-0,010124
1782,000000	3,850269E-9	1,078945	-0,009083
1783,000000	3,029729E-9	1,079551	-0,008306
1784,000000	2,449597E-9	1,080156	-0,008533
1785,000000	3,139972E-9	1,080762	-0,007846
1786,000000	2,776377E-9	1,081367	-0,007331
1787,000000	2,947519E-9	1,081973	-0,006423
1788,000000	3,601391E-9	1,082578	-0,006405
1789,000000	3,308209E-9	1,083184	-0,005490
1790,000000	2,484760E-9	1,083789	-0,005280
1791,000000	2,528844E-9	1,084395	-0,005047
1792,000000	3,013689E-9	1,085000	-0,004252
1793,000000	4,038176E-9	1,085605	-0,002853
1794,000000	3,950691E-9	1,086211	-0,002829
1795,000000	4,261216E-9	1,086816	-0,000909
1796,000000	4,014769E-9	1,087422	-0,000341
1797,000000	2,594300E-9	1,088027	8,908832E-5
1798,000000	3,783239E-9	1,088633	0,001141
1799,000000	3,374686E-9	1,089238	0,001961
1800,000000	4,340138E-9	1,089844	0,002840
1801,000000	4,838589E-9	1,090449	0,003874
1802,000000	5,419614E-9	1,091055	0,004562
1803,000000	2,996195E-9	1,091660	0,004657
1804,000000	3,652342E-9	1,092266	0,006164
1805,000000	4,039058E-9	1,092871	0,006254
1806,000000	3,359107E-9	1,093477	0,007486
1807,000000	4,834930E-9	1,094082	0,008580
1808,000000	5,404124E-9	1,094688	0,007892
1809,000000	3,498669E-9	1,095293	0,009931
1810,000000	4,315025E-9	1,095898	0,009722
1811,000000	3,600691E-9	1,096504	0,011199
1812,000000	4,254919E-9	1,097109	0,011295
1813,000000	3,201018E-9	1,097715	0,011988
1814,000000	4,501608E-9	1,098320	0,012323
1815,000000	3,956882E-9	1,098926	0,012556
1816,000000	3,542870E-9	1,099531	0,013902
1817,000000	3,132275E-9	1,100137	0,013920
1818,000000	3,902551E-9	1,100742	0,014153
1819,000000	4,210704E-9	1,101348	0,014757
1820,000000	5,444083E-9	1,101953	0,014823
1821,000000	2,501387E-9	1,102559	0,014751
1822,000000	3,454360E-9	1,103164	0,015773
1823,000000	5,413649E-9	1,103770	0,016826
1824,000000	4,467164E-9	1,104375	0,015014
1825,000000	4,554442E-9	1,104980	0,016880
1826,000000	4,608985E-9	1,105586	0,016317
1827,000000	4,877344E-9	1,106191	0,016311
1828,000000	5,484978E-9	1,106797	0,016616
1829,000000	3,753902E-9	1,107402	0,016162
1830,000000	6,213905E-9	1,108008	0,016323
1831,000000	5,586622E-9	1,108613	0,017477
1832,000000	4,807248E-9	1,109219	0,015923
1833,000000	5,175978E-9	1,109824	0,016048
1834,000000	3,947352E-9	1,110430	0,015971
1835,000000	4,376708E-9	1,111035	0,016419
1836,000000	5,321106E-9	1,111641	0,015989
1837,000000	6,509845E-9	1,112246	0,015432
1838,000000	4,846400E-9	1,112852	0,015397
1839,000000	5,503588E-9	1,113457	0,015403
1840,000000	5,284065E-9	1,114062	0,015534
1841,000000	5,173232E-9	1,114668	0,014966
1842,000000	5,133482E-9	1,115273	0,014960
1843,000000	7,122216E-9	1,115879	0,014679
1844,000000	4,779807E-9	1,116484	0,015074
1845,000000	5,753046E-9	1,117090	0,015002
1846,000000	7,494181E-9	1,117695	0,014996
1847,000000	8,171180E-9	1,118301	0,013770
1848,000000	7,616750E-9	1,118906	0,014518
1849,000000	7,030481E-9	1,119512	0,013579
1850,000000	6,882787E-9	1,120117	0,014811
1851,000000	6,560257E-9	1,120723	0,014332
1852,000000	7,953150E-9	1,121328	0,013292
1853,000000	6,604803E-9	1,121934	0,013387
1854,000000	6,980455E-9	1,122539	0,013848
1855,000000	6,022231E-9	1,123145	0,012873
1856,000000	7,104500E-9	1,123750	0,013005
1857,000000	8,365567E-9	1,124355	0,012933
1858,000000	6,350286E-9	1,124961	0,012365
1859,000000	5,930635E-9	1,125566	0,011970
1860,000000	6,937082E-9	1,126172	0,011857
1861,000000	7,275328E-9	1,126777	0,011618
1862,000000	7,034865E-9	1,127383	0,010613
1863,000000	6,969896E-9	1,127988	0,010296
1864,000000	7,899395E-9	1,128594	0,009315
1865,000000	7,891008E-9	1,129199	0,008287
1866,000000	8,250396E-9	1,129805	0,007587
1867,000000	9,046779E-9	1,130410	0,008090
1868,000000	9,953099E-9	1,131016	0,007569
1869,000000	1,013567E-8	1,131621	0,007235
1870,000000	8,674460E-9	1,132227	0,005602
1871,000000	9,374864E-9	1,132832	0,005716
1872,000000	6,853399E-9	1,133438	0,004376
1873,000000	1,016084E-8	1,134043	0,003904
1874,000000	6,626173E-9	1,134648	0,003659
1875,000000	7,973543E-9	1,135254	0,002493
1876,000000	8,062341E-9	1,135859	0,001124
1877,000000	1,093036E-8	1,136465	0,001171
1878,000000	1,175953E-8	1,137070	0,000759
1879,000000	9,820772E-9	1,137676	-0,000670
1880,000000	9,470268E-9	1,138281	-0,001298
1881,000000	1,143488E-8	1,138887	-0,001920
1882,000000	1,264041E-8	1,139492	-0,002536
1883,000000	1,289835E-8	1,140098	-0,003313
1884,000000	1,044614E-8	1,140703	-0,004557
1885,000000	1,404997E-8	1,141309	-0,004766
1886,000000	1,082711E-8	1,141914	-0,006488
1887,000000	1,409398E-8	1,142520	-0,005831
1888,000000	9,722488E-9	1,143125	-0,006357
1889,000000	1,266858E-8	1,143730	-0,006566
1890,000000	1,178267E-8	1,144336	-0,008210
1891,000000	1,225804E-8	1,144941	-0,008719
1892,000000	1,124472E-8	1,145547	-0,009400
1893,000000	9,940000E-9	1,146152	-0,009939
1894,000000	1,293322E-8	1,146758	-0,009532
1895,000000	1,316341E-8	1,147363	-0,010764
1896,000000	1,213759E-8	1,147969	-0,011015
1897,000000	1,445755E-8	1,148574	-0,011392
1898,000000	1,394886E-8	1,149180	-0,012450
1899,000000	1,546835E-8	1,149785	-0,012205
1900,000000	1,459932E-8	1,150391	-0,011906
1901,000000	1,422286E-8	1,150996	-0,012647
1902,000000	1,213765E-8	1,151602	-0,013161
1903,000000	1,501968E-8	1,152207	-0,012127
1904,000000	1,717094E-8	1,152813	-0,012211
1905,000000	1,595192E-8	1,153418	-0,012946
1906,000000	1,478477E-8	1,154023	-0,012558
1907,000000	1,454096E-8	1,154629	-0,011948
1908,000000	1,802193E-8	1,155234	-0,011708
1909,000000	1,832724E-8	1,155840	-0,012564
1910,000000	2,275643E-8	1,156445	-0,011846
1911,000000	2,290340E-8	1,157051	-0,010028
1912,000000	1,859557E-8	1,157656	-0,010710
1913,000000	1,823265E-8	1,158262	-0,011170
1914,000000	2,240782E-8	1,158867	-0,010895
1915,000000	2,286482E-8	1,159473	-0,009502
1916,000000	2,365145E-8	1,160078	-0,009568
1917,000000	1,908219E-8	1,160684	-0,009036
1918,000000	2,528271E-8	1,161289	-0,009424
1919,000000	2,088182E-8	1,161895	-0,009311
1920,000000	2,210942E-8	1,162500	-0,008204
1921,000000	2,123880E-8	1,163105	-0,008767
1922,000000	2,366855E-8	1,163711	-0,008157
1923,000000	2,632034E-8	1,164316	-0,007900
1924,000000	2,441421E-8	1,164922	-0,007284
1925,000000	2,613848E-8	1,165527	-0,007433
1926,000000	2,729604E-8	1,166133	-0,007296
1927,000000	2,705694E-8	1,166738	-0,006757
1928,000000	2,130164E-8	1,167344	-0,006351
1929,000000	2,601575E-8	1,167949	-0,006165
1930,000000	2,856161E-8	1,168555	-0,005807
1931,000000	2,322007E-8	1,169160	-0,004958
1932,000000	2,309728E-8	1,169766	-0,005831
1933,000000	1,083248E-8	1,170371	-0,005035
1934,000000	2,572367E-8	1,170977	-0,003804
1935,000000	4,695132E-8	1,171582	-0,003857
1936,000000	6,002922E-8	1,172187	-0,004318
1937,000000	3,898629E-8	1,172793	-0,003433
1938,000000	4,413168E-8	1,173398	-0,002153
1939,000000	5,534791E-8	1,174004	-0,002261
1940,000000	6,665978E-8	1,174609	-0,001842
1941,000000	4,098094E-8	1,175215	-0,002153
1942,000000	4,522954E-8	1,175820	-0,000808
1943,000000	4,330148E-8	1,176426	-9,627609E-5
1944,000000	6,587018E-8	1,177031	0,000508
1945,000000	6,175984E-8	1,177637	0,001088
1946,000000	7,334751E-8	1,178242	0,001716
1947,000000	8,592914E-8	1,178848	0,001889
1948,000000	5,710856E-8	1,179453	0,002254
1949,000000	5,336050E-8	1,180059	0,003940
1950,000000	6,275731E-8	1,180664	0,003426
1951,000000	6,434664E-8	1,181270	0,004729
1952,000000	7,457002E-8	1,181875	0,005626
1953,000000	7,718709E-8	1,182480	0,006278
1954,000000	7,881194E-8	1,183086	0,007025
1955,000000	7,244246E-8	1,183691	0,007390
1956,000000	7,018593E-8	1,184297	0,008975
1957,000000	8,463699E-8	1,184902	0,009005
1958,000000	1,045048E-7	1,185508	0,010129
1959,000000	8,930267E-8	1,186113	0,011020
1960,000000	4,895498E-8	1,186719	0,012054
1961,000000	1,311896E-7	1,187324	0,011755
1962,000000	3,950003E-8	1,187930	0,012251
1963,000000	4,776664E-7	1,188535	0,012760
1964,000000	5,294311E-7	1,189141	0,013788
1965,000000	3,452470E-7	1,189746	0,014805
1966,000000	3,662959E-7	1,190352	0,015193
1967,000000	2,552144E-7	1,190957	0,015827
1968,000000	2,287580E-7	1,191563	0,017131
1969,000000	3,616251E-7	1,192168	0,016521
1970,000000	3,328702E-7	1,192773	0,017376
1971,000000	3,847298E-7	1,193379	0,017896
1972,000000	4,007212E-7	1,193984	0,017902
1973,000000	4,997941E-7	1,194590	0,018434
1974,000000	3,666875E-7	1,195195	0,018368
1975,000000	6,048167E-7	1,195801	0,018661
1976,000000	6,936245E-7	1,196406	0,020312
1977,000000	9,736257E-7	1,197012	0,019349
1978,000000	1,132241E-6	1,197617	0,019845
1979,000000	1,274905E-6	1,198223	0,020844
1980,000000	1,745811E-6	1,198828	0,019720
1981,000000	2,129805E-6	1,199434	0,019552
1982,000000	3,124035E-6	1,200039	0,020192
1983,000000	5,897211E-6	1,200645	0,019630
1984,000000	1,125461E-5	1,201250	0,020049
1985,000000	2,209429E-5	1,201855	0,019487
1986,000000	0,000185	1,202461	0,018865
1987,000000	0,000334	1,203066	0,019313
1988,000000	2,449808E-5	1,203672	0,018016
1989,000000	1,217125E-5	1,204277	0,018195
1990,000000	6,243352E-6	1,204883	0,017591
1991,000000	3,375221E-6	1,205488	0,017711
1992,000000	2,454562E-6	1,206094	0,017113
1993,000000	1,670886E-6	1,206699	0,016760
1994,000000	1,321865E-6	1,207305	0,016957
1995,000000	1,159576E-6	1,207910	0,016323
1996,000000	9,937764E-7	1,208516	0,015074
1997,000000	8,811633E-7	1,209121	0,015779
1998,000000	7,282578E-7	1,209727	0,014852
1999,000000	7,936088E-7	1,210332	0,014595
